Dimension: array length (n),Time (clock)
0,0.200000
1,0.170000
2,0.190000
3,0.160000
4,0.190000
5,0.240000
6,0.120000
7,0.240000
8,0.240000
9,0.240000
10,0.230000
11,0.270000
12,0.300000
13,0.310000
14,0.310000
15,0.320000
16,0.350000
17,0.340000
18,0.360000
19,0.390000
20,0.370000
21,0.380000
22,0.460000
23,0.480000
24,0.710000
25,0.500000
26,0.570000
27,0.480000
28,0.520000
29,0.510000
30,0.530000
31,0.580000
32,0.560000
33,0.610000
34,0.630000
35,0.650000
36,0.630000
37,0.630000
38,0.700000
39,0.620000
40,0.690000
41,0.790000
42,0.730000
43,0.790000
44,0.770000
45,0.810000
46,0.870000
47,0.890000
48,0.840000
49,0.910000
50,0.930000
51,0.940000
52,0.940000
53,1.000000
54,1.040000
55,1.050000
56,1.080000
57,1.100000
58,1.120000
59,1.210000
60,1.170000
61,1.230000
62,1.240000
63,1.240000
64,1.270000
65,1.320000
66,1.290000
67,1.330000
68,1.380000
69,1.370000
70,1.430000
71,1.440000
72,1.420000
73,1.480000
74,1.550000
75,1.600000
76,1.560000
77,1.550000
78,1.750000
79,1.610000
80,1.730000
81,1.720000
82,1.780000
83,1.810000
84,1.810000
85,1.920000
86,1.900000
87,1.930000
88,1.970000
89,2.030000
90,2.050000
91,2.070000
92,2.110000
93,2.170000
94,2.180000
95,2.130000
96,2.250000
97,2.310000
98,2.360000
99,2.460000
100,2.450000
101,2.430000
102,2.450000
103,2.480000
104,2.590000
105,2.540000
106,2.650000
107,2.580000
108,2.640000
109,2.690000
110,2.700000
111,2.810000
112,2.820000
113,2.870000
114,2.920000
115,2.970000
116,2.990000
117,3.020000
118,3.040000
119,3.120000
120,3.140000
121,3.200000
122,3.280000
123,3.310000
124,3.370000
125,3.380000
126,3.460000
127,3.450000
128,3.510000
129,3.570000
130,3.630000
131,3.620000
132,3.680000
133,3.730000
134,3.690000
135,3.790000
136,3.880000
137,3.930000
138,3.970000
139,3.940000
140,4.060000
141,4.160000
142,4.170000
143,4.160000
144,4.300000
145,4.270000
146,4.350000
147,4.350000
148,4.410000
149,4.560000
150,4.620000
151,4.570000
152,4.660000
153,4.730000
154,4.780000
155,4.810000
156,4.790000
157,4.730000
158,4.780000
159,4.920000
160,4.920000
161,4.980000
162,5.140000
163,5.100000
164,5.140000
165,5.130000
166,5.230000
167,5.250000
168,5.370000
169,5.560000
170,5.450000
171,5.460000
172,5.540000
173,5.490000
174,5.680000
175,5.680000
176,5.820000
177,5.790000
178,5.920000
179,5.950000
180,6.010000
181,6.010000
182,6.060000
183,6.220000
184,6.210000
185,6.310000
186,6.280000
187,6.380000
188,6.460000
189,6.490000
190,6.610000
191,6.670000
192,6.730000
193,6.820000
194,6.730000
195,6.920000
196,6.960000
197,7.030000
198,7.100000
199,7.140000
200,7.180000
201,7.200000
202,7.300000
203,7.420000
204,7.480000
205,7.520000
206,7.620000
207,7.650000
208,7.710000
209,7.740000
210,7.900000
211,7.840000
212,8.040000
213,8.070000
214,8.060000
215,8.170000
216,8.230000
217,8.210000
218,8.420000
219,8.500000
220,8.500000
221,8.510000
222,8.660000
223,8.680000
224,8.700000
225,8.690000
226,8.690000
227,8.620000
228,8.840000
229,8.860000
230,8.930000
231,9.050000
232,9.070000
233,9.180000
234,9.260000
235,9.290000
236,9.310000
237,9.400000
238,9.570000
239,9.520000
240,9.660000
241,9.790000
242,9.850000
243,9.890000
244,10.050000
245,10.000000
246,10.050000
247,10.160000
248,10.320000
249,10.290000
250,10.420000
251,10.460000
252,10.550000
253,10.530000
254,10.600000
255,10.690000
256,10.940000
257,10.830000
258,10.900000
259,11.020000
260,11.110000
261,11.220000
262,11.260000
263,11.360000
264,11.370000
265,11.500000
266,11.570000
267,11.620000
268,11.730000
269,11.800000
270,11.900000
271,11.990000
272,12.030000
273,12.240000
274,12.170000
275,12.260000
276,12.380000
277,12.500000
278,12.590000
279,12.540000
280,12.700000
281,12.910000
282,12.920000
283,12.980000
284,13.010000
285,13.090000
286,12.880000
287,12.920000
288,12.990000
289,13.080000
290,13.140000
291,13.300000
292,13.300000
293,13.380000
294,13.450000
295,13.570000
296,13.760000
297,13.740000
298,13.880000
299,13.950000
300,14.000000
301,14.060000
302,14.140000
303,14.290000
304,14.220000
305,14.430000
306,14.530000
307,14.650000
308,14.700000
309,14.730000
310,14.900000
311,14.980000
312,15.130000
313,15.290000
314,15.180000
315,15.330000
316,15.370000
317,15.520000
318,15.610000
319,15.640000
320,15.650000
321,15.810000
322,15.890000
323,16.030000
324,16.060000
325,16.330000
326,16.370000
327,16.350000
328,16.420000
329,16.590000
330,16.630000
331,16.750000
332,16.820000
333,16.960000
334,17.060000
335,17.000000
336,17.160000
337,17.460000
338,17.420000
339,17.540000
340,17.540000
341,17.730000
342,17.740000
343,17.870000
344,17.960000
345,18.200000
346,18.180000
347,17.850000
348,17.980000
349,18.100000
350,18.100000
351,18.220000
352,18.300000
353,18.360000
354,18.490000
355,18.620000
356,18.790000
357,18.740000
358,18.770000
359,19.050000
360,19.020000
361,19.010000
362,19.200000
363,19.310000
364,19.360000
365,19.470000
366,19.610000
367,19.770000
368,19.850000
369,19.880000
370,19.970000
371,20.640000
372,21.010000
373,20.710000
374,20.530000
375,20.550000
376,20.630000
377,20.860000
378,22.730000
379,20.990000
380,21.100000
381,21.250000
382,21.170000
383,21.440000
384,21.410000
385,21.640000
386,21.700000
387,21.760000
388,21.950000
389,22.030000
390,22.340000
391,22.180000
392,22.460000
393,22.430000
394,22.490000
395,23.060000
396,23.440000
397,23.440000
398,23.490000
399,23.800000
400,23.760000
401,23.900000
402,24.040000
403,24.100000
404,24.210000
405,24.290000
406,24.900000
407,25.210000
408,25.330000
409,25.440000
410,25.780000
411,25.660000
412,25.880000
413,25.810000
414,26.000000
415,26.210000
416,26.320000
417,26.370000
418,27.110000
419,27.190000
420,27.320000
421,27.500000
422,27.840000
423,27.810000
424,27.960000
425,28.010000
426,28.170000
427,28.150000
428,28.310000
429,28.410000
430,28.600000
431,28.700000
432,28.680000
433,29.020000
434,29.150000
435,29.180000
436,29.510000
437,29.600000
438,29.470000
439,29.780000
440,30.170000
441,30.290000
442,30.230000
443,30.280000
444,30.380000
445,30.440000
446,30.620000
447,31.040000
448,30.970000
449,31.010000
450,31.200000
451,31.350000
452,30.530000
453,30.700000
454,31.030000
455,30.940000
456,31.300000
457,31.150000
458,31.390000
459,31.540000
460,31.620000
461,31.970000
462,31.960000
463,32.030000
464,32.160000
465,32.180000
466,32.580000
467,32.710000
468,32.700000
469,32.800000
470,32.930000
471,33.210000
472,33.360000
473,33.340000
474,33.330000
475,32.710000
476,32.910000
477,32.900000
478,33.180000
479,33.420000
480,33.370000
481,33.520000
482,33.650000
483,33.830000
484,33.840000
485,33.990000
486,34.340000
487,34.190000
488,34.500000
489,34.480000
490,34.720000
491,34.880000
492,35.030000
493,35.120000
494,35.250000
495,35.460000
496,35.430000
497,35.690000
498,35.740000
499,36.060000
500,36.030000
501,36.050000
502,36.470000
503,35.640000
504,35.490000
505,35.750000
506,35.910000
507,36.170000
508,36.300000
509,36.220000
510,36.580000
511,37.110000
512,37.170000
513,36.840000
514,37.030000
515,37.790000
516,38.130000
517,37.330000
518,38.590000
519,37.940000
520,38.320000
521,38.040000
522,38.680000
523,40.310000
524,39.600000
525,39.590000
526,39.940000
527,40.140000
528,40.240000
529,40.050000
530,40.310000
531,40.780000
532,40.420000
533,40.860000
534,41.250000
535,41.150000
536,43.180000
537,48.180000
538,41.520000
539,41.450000
540,49.710000
541,42.020000
542,47.880000
543,44.920000
544,42.000000
545,42.460000
546,50.590000
547,42.860000
548,49.280000
549,45.800000
550,43.170000
551,46.600000
552,47.800000
553,49.550000
554,47.230000
555,44.250000
556,44.060000
557,51.970000
558,44.490000
559,54.240000
560,45.840000
561,46.360000
562,54.080000
563,46.400000
564,55.200000
565,46.540000
566,46.720000
567,55.070000
568,47.270000
569,53.800000
570,47.660000
571,47.520000
572,47.990000
573,47.970000
574,48.220000
575,48.370000
576,48.400000
577,48.710000
578,49.060000
579,48.710000
580,49.220000
581,49.170000
582,49.210000
583,49.780000
584,49.680000
585,50.090000
586,49.780000
587,50.340000
588,50.610000
589,50.390000
590,51.310000
591,50.880000
592,51.040000
593,51.530000
594,51.370000
595,51.850000
596,51.600000
597,51.670000
598,52.290000
599,52.150000
600,52.370000
601,52.570000
602,52.400000
603,52.930000
604,53.420000
605,53.110000
606,53.440000
607,53.300000
608,53.670000
609,53.810000
610,53.870000
611,54.340000
612,55.340000
613,55.920000
614,55.870000
615,56.540000
616,56.300000
617,56.770000
618,56.940000
619,57.680000
620,60.120000
621,59.890000
622,59.320000
623,59.250000
624,59.620000
625,60.850000
626,59.920000
627,60.120000
628,60.020000
629,60.350000
630,60.670000
631,60.840000
632,60.940000
633,60.990000
634,59.990000
635,59.880000
636,59.900000
637,60.370000
638,60.400000
639,60.540000
640,60.990000
641,60.790000
642,61.190000
643,61.010000
644,60.740000
645,60.160000
646,60.070000
647,60.460000
648,60.870000
649,60.930000
650,60.830000
651,61.120000
652,61.380000
653,61.440000
654,61.570000
655,62.080000
656,62.200000
657,62.060000
658,62.490000
659,62.620000
660,63.560000
661,64.680000
662,65.390000
663,65.200000
664,65.580000
665,65.270000
666,77.890000
667,65.800000
668,66.470000
669,65.980000
670,66.300000
671,66.740000
672,66.640000
673,66.760000
674,66.660000
675,67.370000
676,67.270000
677,66.050000
678,66.080000
679,66.320000
680,66.660000
681,66.470000
682,66.650000
683,67.090000
684,67.360000
685,67.590000
686,67.810000
687,67.690000
688,67.020000
689,66.440000
690,66.540000
691,66.680000
692,67.000000
693,67.210000
694,67.370000
695,68.010000
696,67.690000
697,67.830000
698,68.100000
699,68.190000
700,68.450000
701,68.470000
702,69.000000
703,68.950000
704,68.450000
705,70.570000
706,67.820000
707,68.060000
708,68.110000
709,68.510000
710,68.400000
711,68.650000
712,68.840000
713,69.430000
714,69.460000
715,69.710000
716,70.820000
717,69.740000
718,69.880000
719,70.020000
720,70.490000
721,70.440000
722,70.520000
723,71.030000
724,71.210000
725,71.260000
726,71.460000
727,71.790000
728,71.980000
729,71.940000
730,72.300000
731,71.000000
732,71.200000
733,71.120000
734,71.220000
735,71.080000
736,71.640000
737,71.600000
738,71.960000
739,72.020000
740,72.460000
741,75.270000
742,72.520000
743,74.340000
744,73.190000
745,73.210000
746,73.610000
747,75.650000
748,75.170000
749,75.820000
750,76.120000
751,77.290000
752,78.400000
753,78.790000
754,79.240000
755,81.520000
756,86.960000
757,81.650000
758,82.230000
759,82.090000
760,83.630000
761,84.710000
762,85.210000
763,85.110000
764,85.310000
765,85.580000
766,85.810000
767,86.190000
768,86.130000
769,87.260000
770,89.250000
771,90.020000
772,89.910000
773,92.100000
774,92.770000
775,93.250000
776,93.150000
777,93.850000
778,93.910000
779,93.910000
780,93.990000
781,92.300000
782,91.800000
783,92.150000
784,92.280000
785,92.690000
786,92.640000
787,92.950000
788,93.180000
789,95.160000
790,96.880000
791,96.510000
792,97.660000
793,97.130000
794,97.010000
795,94.970000
796,95.130000
797,96.260000
798,98.200000
799,98.460000
800,98.500000
801,98.910000
802,99.340000
803,99.990000
804,101.390000
805,102.630000
806,102.600000
807,103.360000
808,102.510000
809,100.760000
810,101.270000
811,101.440000
812,102.050000
813,101.760000
814,100.180000
815,99.810000
816,99.650000
817,99.860000
818,102.210000
819,104.050000
820,104.100000
821,101.800000
822,101.600000
823,101.240000
824,101.550000
825,101.470000
826,105.130000
827,105.400000
828,105.780000
829,107.850000
830,106.150000
831,110.550000
832,109.880000
833,109.420000
834,110.480000
835,110.410000
836,108.530000
837,107.780000
838,107.570000
839,108.880000
840,106.720000
841,105.460000
842,106.000000
843,106.380000
844,106.840000
845,106.500000
846,106.460000
847,107.160000
848,107.610000
849,107.610000
850,108.150000
851,108.430000
852,108.650000
853,112.610000
854,113.210000
855,113.290000
856,113.130000
857,112.370000
858,113.820000
859,113.150000
860,113.420000
861,113.920000
862,113.570000
863,114.270000
864,114.250000
865,114.890000
866,117.160000
867,119.650000
868,119.200000
869,119.470000
870,117.730000
871,116.850000
872,116.570000
873,116.330000
874,117.820000
875,121.010000
876,133.320000
877,131.790000
878,127.070000
879,131.920000
880,122.340000
881,129.130000
882,123.010000
883,123.820000
884,123.960000
885,129.370000
886,133.580000
887,138.790000
888,135.800000
889,124.510000
890,124.270000
891,125.370000
892,125.560000
893,126.100000
894,126.210000
895,126.360000
896,126.900000
897,126.950000
898,126.260000
899,127.900000
900,127.420000
901,131.150000
902,128.210000
903,131.620000
904,128.770000
905,129.340000
906,131.900000
907,132.300000
908,129.540000
909,130.740000
910,133.510000
911,133.550000
912,129.800000
913,127.260000
914,127.550000
915,128.020000
916,127.620000
917,129.050000
918,135.610000
919,135.680000
920,133.480000
921,134.970000
922,130.140000
923,130.320000
924,130.180000
925,130.640000
926,133.440000
927,134.830000
928,135.710000
929,140.280000
930,139.000000
931,136.390000
932,135.920000
933,138.450000
934,141.950000
935,139.730000
936,138.530000
937,134.550000
938,134.240000
939,134.590000
940,134.820000
941,135.110000
942,135.730000
943,137.710000
944,146.520000
945,140.320000
946,140.860000
947,147.270000
948,146.480000
949,137.510000
950,137.480000
951,138.300000
952,137.510000
953,138.410000
954,144.310000
955,145.350000
956,139.320000
957,139.540000
958,139.780000
959,140.230000
960,139.950000
961,144.350000
962,145.110000
963,147.180000
964,151.680000
965,150.970000
966,142.280000
967,142.730000
968,142.220000
969,142.470000
970,153.360000
971,152.770000
972,143.970000
973,144.620000
974,144.370000
975,144.670000
976,145.050000
977,145.080000
978,149.030000
979,150.430000
980,149.930000
981,150.560000
982,149.590000
983,146.610000
984,152.290000
985,150.100000
986,147.760000
987,149.430000
988,146.620000
989,144.820000
990,144.650000
991,144.840000
992,145.320000
993,148.230000
994,150.300000
995,155.090000
996,151.080000
997,157.220000
998,157.590000
999,151.750000
1000,152.400000
1001,152.320000
1002,152.960000
1003,156.550000
1004,160.380000
1005,154.330000
1006,154.010000
1007,153.860000
1008,154.280000
1009,154.640000
1010,155.670000
1011,160.940000
1012,161.940000
1013,155.920000
1014,156.530000
1015,156.100000
1016,162.600000
1017,162.910000
1018,156.880000
1019,157.550000
1020,157.840000
1021,157.770000
1022,159.010000
1023,158.510000
1024,158.810000
1025,160.260000
1026,164.230000
1027,164.700000
1028,167.290000
1029,160.750000
1030,166.760000
1031,166.320000
1032,156.920000
1033,157.550000
1034,157.670000
1035,158.000000
1036,161.420000
1037,168.760000
1038,169.750000
1039,160.500000
1040,159.540000
1041,160.080000
1042,164.010000
1043,171.100000
1044,167.320000
1045,168.510000
1046,165.820000
1047,165.770000
1048,167.020000
1049,167.370000
1050,166.930000
1051,167.100000
1052,175.960000
1053,176.190000
1054,168.550000
1055,168.010000
1056,168.720000
1057,168.760000
1058,172.750000
1059,175.000000
1060,175.490000
1061,175.760000
1062,178.990000
1063,173.090000
1064,171.850000
1065,174.400000
1066,169.010000
1067,166.970000
1068,167.980000
1069,163.850000
1070,163.670000
1071,164.520000
1072,164.170000
1073,160.400000
1074,160.930000
1075,160.820000
1076,161.070000
1077,159.050000
1078,157.710000
1079,158.350000
1080,158.680000
1081,158.350000
1082,158.750000
1083,156.320000
1084,155.670000
1085,155.500000
1086,155.720000
1087,156.520000
1088,156.710000
1089,160.090000
1090,161.230000
1091,157.680000
1092,158.230000
1093,159.650000
1094,161.940000
1095,165.950000
1096,166.550000
1097,170.200000
1098,173.090000
1099,175.840000
1100,175.910000
1101,173.410000
1102,173.320000
1103,173.890000
1104,178.260000
1105,178.970000
1106,178.800000
1107,180.250000
1108,185.030000
1109,183.970000
1110,181.250000
1111,181.470000
1112,183.110000
1113,187.790000
1114,187.730000
1115,188.600000
1116,191.170000
1117,190.730000
1118,189.270000
1119,189.330000
1120,188.820000
1121,189.580000
1122,191.920000
1123,196.200000
1124,196.070000
1125,195.460000
1126,194.270000
1127,191.210000
1128,187.020000
1129,185.910000
1130,184.740000
1131,181.920000
1132,183.210000
1133,180.350000
1134,178.890000
1135,178.950000
1136,179.420000
1137,178.320000
1138,175.120000
1139,175.370000
1140,175.540000
1141,175.640000
1142,175.950000
1143,172.300000
1144,172.770000
1145,172.940000
1146,172.960000
1147,173.550000
1148,174.370000
1149,174.060000
1150,172.760000
1151,170.330000
1152,170.190000
1153,170.960000
1154,170.900000
1155,170.920000
1156,171.750000
1157,175.840000
1158,175.740000
1159,174.250000
1160,177.120000
1161,177.280000
1162,182.700000
1163,185.050000
1164,188.510000
1165,187.410000
1166,188.910000
1167,190.610000
1168,194.720000
1169,196.870000
1170,201.110000
1171,201.170000
1172,201.590000
1173,201.740000
1174,201.320000
1175,202.850000
1176,208.410000
1177,208.610000
1178,208.410000
1179,209.110000
1180,209.790000
1181,210.330000
1182,210.440000
1183,210.580000
1184,215.240000
1185,216.700000
1186,217.650000
1187,217.840000
1188,219.090000
1189,213.060000
1190,213.480000
1191,214.310000
1192,213.660000
1193,214.690000
1194,217.580000
1195,220.840000
1196,221.760000
1197,216.040000
1198,215.850000
1199,212.020000
1200,210.130000
1201,208.620000
1202,205.280000
1203,205.650000
1204,200.430000
1205,201.630000
1206,201.400000
1207,200.280000
1208,197.160000
1209,197.250000
1210,197.300000
1211,197.920000
1212,195.370000
1213,193.610000
1214,193.520000
1215,194.380000
1216,195.210000
1217,194.640000
1218,197.620000
1219,200.800000
1220,205.940000
1221,208.490000
1222,212.800000
1223,212.240000
1224,213.460000
1225,213.910000
1226,216.520000
1227,220.200000
1228,221.360000
1229,217.250000
1230,221.970000
1231,221.100000
1232,221.820000
1233,222.690000
1234,222.130000
1235,229.610000
1236,229.670000
1237,229.980000
1238,230.310000
1239,230.650000
1240,231.740000
1241,231.680000
1242,238.270000
1243,238.470000
1244,233.180000
1245,232.580000
1246,234.130000
1247,233.820000
1248,234.780000
1249,251.950000
1250,282.380000
1251,247.940000
1252,243.250000
1253,242.700000
1254,240.740000
1255,249.180000
1256,251.100000
1257,313.000000
1258,303.780000
1259,297.670000
1260,268.660000
1261,262.290000
1262,258.440000
1263,254.710000
1264,248.290000
1265,247.040000
1266,242.050000
1267,241.020000
1268,235.060000
1269,234.720000
1270,231.490000
1271,229.810000
1272,228.860000
1273,229.910000
1274,230.190000
1275,229.900000
1276,228.590000
1277,224.600000
1278,225.630000
1279,238.580000
1280,236.210000
1281,284.080000
1282,273.290000
1283,280.730000
1284,423.630000
1285,435.930000
1286,403.930000
1287,339.470000
1288,318.590000
1289,307.980000
1290,381.480000
1291,354.410000
1292,347.010000
1293,333.050000
1294,395.920000
1295,313.560000
1296,328.520000
1297,336.120000
1298,307.290000
1299,295.090000
1300,286.010000
1301,293.080000
1302,279.030000
1303,273.580000
1304,272.600000
1305,264.150000
1306,263.880000
1307,256.960000
1308,255.950000
1309,249.250000
1310,251.360000
1311,248.350000
1312,253.060000
1313,269.770000
1314,267.190000
1315,269.080000
1316,271.090000
1317,260.440000
1318,258.320000
1319,253.180000
1320,254.350000
1321,262.420000
1322,258.120000
1323,257.960000
1324,258.530000
1325,260.590000
1326,261.620000
1327,254.390000
1328,250.350000
1329,251.830000
1330,252.140000
1331,247.760000
1332,244.800000
1333,245.300000
1334,245.840000
1335,239.190000
1336,239.690000
1337,239.930000
1338,240.310000
1339,236.980000
1340,235.330000
1341,239.640000
1342,245.240000
1343,242.700000
1344,238.640000
1345,236.470000
1346,237.210000
1347,238.220000
1348,242.970000
1349,241.710000
1350,241.910000
1351,238.450000
1352,246.910000
1353,242.140000
1354,244.650000
1355,240.790000
1356,242.300000
1357,240.630000
1358,236.600000
1359,235.480000
1360,236.300000
1361,241.360000
1362,236.400000
1363,239.580000
1364,237.830000
1365,237.880000
1366,237.040000
1367,238.620000
1368,238.520000
1369,239.840000
1370,239.060000
1371,240.190000
1372,240.290000
1373,239.920000
1374,234.710000
1375,236.350000
1376,236.300000
1377,237.910000
1378,237.990000
1379,237.300000
1380,236.810000
1381,245.030000
1382,246.690000
1383,250.630000
1384,246.610000
1385,248.210000
1386,247.790000
1387,244.440000
1388,245.990000
1389,246.150000
1390,246.730000
1391,247.390000
1392,246.790000
1393,247.680000
1394,248.180000
1395,246.980000
1396,242.890000
1397,242.220000
1398,245.770000
1399,244.500000
1400,243.520000
1401,244.300000
1402,245.410000
1403,245.670000
1404,245.440000
1405,255.960000
1406,251.490000
1407,252.450000
1408,252.670000
1409,253.200000
1410,253.700000
1411,247.990000
1412,247.960000
1413,250.200000
1414,249.870000
1415,260.060000
1416,284.170000
1417,261.530000
1418,262.840000
1419,263.740000
1420,267.200000
1421,264.020000
1422,265.930000
1423,264.990000
1424,270.790000
1425,279.490000
1426,286.330000
1427,290.940000
1428,300.190000
1429,361.250000
1430,306.660000
1431,298.790000
1432,295.850000
1433,289.960000
1434,289.190000
1435,297.790000
1436,292.450000
1437,292.200000
1438,290.840000
1439,286.150000
1440,308.560000
1441,341.540000
1442,329.940000
1443,329.200000
1444,350.300000
1445,327.310000
1446,319.800000
1447,313.050000
1448,307.350000
1449,316.810000
1450,305.310000
1451,301.810000
1452,297.630000
1453,299.090000
1454,298.240000
1455,291.150000
1456,291.540000
1457,291.460000
1458,284.490000
1459,285.000000
1460,286.370000
1461,285.200000
1462,277.900000
1463,280.060000
1464,280.070000
1465,280.070000
1466,281.280000
1467,280.580000
1468,281.120000
1469,280.580000
1470,280.910000
1471,275.380000
1472,278.410000
1473,277.330000
1474,277.110000
1475,278.000000
1476,287.460000
1477,277.280000
1478,277.830000
1479,278.550000
1480,278.880000
1481,283.910000
1482,279.230000
1483,280.150000
1484,280.060000
1485,279.350000
1486,281.800000
1487,280.550000
1488,282.020000
1489,281.570000
1490,282.310000
1491,282.900000
1492,282.530000
1493,278.560000
1494,279.850000
1495,279.780000
1496,279.960000
1497,281.130000
1498,281.460000
1499,283.280000
1500,282.690000
1501,287.110000
1502,286.730000
1503,287.150000
1504,288.050000
1505,310.940000
1506,292.140000
1507,288.680000
1508,288.740000
1509,290.080000
1510,293.160000
1511,301.100000
1512,307.410000
1513,334.870000
1514,322.780000
1515,318.100000
1516,314.300000
1517,315.290000
1518,314.910000
1519,310.840000
1520,307.990000
1521,308.670000
1522,308.760000
1523,309.940000
1524,310.060000
1525,302.710000
1526,303.570000
1527,303.800000
1528,303.910000
1529,314.050000
1530,337.360000
1531,322.070000
1532,321.800000
1533,322.620000
1534,322.310000
1535,349.110000
1536,333.270000
1537,333.890000
1538,339.670000
1539,335.620000
1540,334.640000
1541,335.350000
1542,514.160000
1543,452.020000
1544,477.870000
1545,546.900000
1546,483.530000
1547,465.740000
1548,548.360000
1549,489.490000
1550,493.170000
1551,471.380000
1552,482.950000
1553,508.540000
1554,476.780000
1555,451.750000
1556,452.280000
1557,440.710000
1558,418.980000
1559,409.730000
1560,397.230000
1561,385.700000
1562,377.280000
1563,375.630000
1564,366.910000
1565,376.830000
1566,373.910000
1567,379.490000
1568,381.250000
1569,367.670000
1570,366.330000
1571,358.240000
1572,363.500000
1573,358.600000
1574,352.350000
1575,349.320000
1576,349.850000
1577,346.900000
1578,341.010000
1579,341.240000
1580,332.750000
1581,334.660000
1582,335.390000
1583,333.210000
1584,326.390000
1585,326.570000
1586,327.530000
1587,327.520000
1588,321.230000
1589,320.160000
1590,335.210000
1591,333.690000
1592,324.400000
1593,322.590000
1594,321.680000
1595,322.260000
1596,323.090000
1597,328.870000
1598,341.390000
1599,341.790000
1600,341.100000
1601,340.050000
1602,332.980000
1603,351.000000
1604,335.580000
1605,337.460000
1606,349.340000
1607,335.700000
1608,335.200000
1609,335.350000
1610,336.940000
1611,337.200000
1612,338.000000
1613,336.340000
1614,342.740000
1615,350.470000
1616,358.550000
1617,366.920000
1618,377.530000
1619,377.700000
1620,379.830000
1621,363.070000
1622,361.690000
1623,352.590000
1624,351.870000
1625,353.720000
1626,358.170000
1627,370.870000
1628,367.490000
1629,367.580000
1630,369.930000
1631,369.950000
1632,363.180000
1633,369.380000
1634,367.760000
1635,367.760000
1636,376.250000
1637,385.730000
1638,456.980000
1639,378.250000
1640,375.740000
1641,369.520000
1642,369.710000
1643,371.300000
1644,370.160000
1645,369.650000
1646,360.550000
1647,361.050000
1648,362.650000
1649,357.380000
1650,353.430000
1651,354.380000
1652,353.620000
1653,354.170000
1654,354.950000
1655,349.930000
1656,346.740000
1657,348.110000
1658,349.430000
1659,347.790000
1660,348.310000
1661,353.220000
1662,352.810000
1663,350.820000
1664,352.670000
1665,351.540000
1666,352.170000
1667,351.070000
1668,349.910000
1669,345.010000
1670,346.380000
1671,346.710000
1672,345.820000
1673,348.080000
1674,346.960000
1675,347.500000
1676,356.970000
1677,357.350000
1678,357.030000
1679,357.510000
1680,356.730000
1681,352.660000
1682,349.790000
1683,351.650000
1684,351.380000
1685,354.500000
1686,351.000000
1687,352.000000
1688,354.920000
1689,352.850000
1690,352.680000
1691,354.630000
1692,354.580000
1693,357.030000
1694,357.680000
1695,355.140000
1696,356.770000
1697,356.860000
1698,357.390000
1699,357.260000
1700,357.250000
1701,358.970000
1702,358.320000
1703,359.940000
1704,359.580000
1705,359.240000
1706,359.690000
1707,359.790000
1708,371.990000
1709,369.840000
1710,368.940000
1711,361.820000
1712,361.820000
1713,364.160000
1714,362.700000
1715,363.610000
1716,375.520000
1717,370.760000
1718,374.130000
1719,443.190000
1720,373.800000
1721,374.280000
1722,375.880000
1723,367.740000
1724,373.550000
1725,369.510000
1726,367.450000
1727,368.430000
1728,370.080000
1729,372.300000
1730,382.220000
1731,405.920000
1732,442.730000
1733,433.520000
1734,428.200000
1735,421.680000
1736,410.520000
1737,409.080000
1738,401.540000
1739,411.770000
1740,413.570000
1741,413.220000
1742,403.410000
1743,432.710000
1744,398.880000
1745,394.580000
1746,395.490000
1747,396.130000
1748,396.320000
1749,395.880000
1750,387.950000
1751,389.620000
1752,390.920000
1753,388.190000
1754,389.220000
1755,389.270000
1756,385.870000
1757,391.730000
1758,390.010000
1759,391.480000
1760,383.320000
1761,383.620000
1762,385.120000
1763,385.150000
1764,385.310000
1765,385.480000
1766,386.200000
1767,386.930000
1768,384.560000
1769,387.490000
1770,385.870000
1771,389.080000
1772,388.560000
1773,388.500000
1774,387.610000
1775,388.760000
1776,390.750000
1777,391.940000
1778,390.680000
1779,392.470000
1780,399.970000
1781,392.330000
1782,392.780000
1783,392.080000
1784,393.520000
1785,392.590000
1786,395.500000
1787,394.040000
1788,399.550000
1789,398.480000
1790,396.080000
1791,402.960000
1792,421.260000
1793,408.510000
1794,397.660000
1795,413.040000
1796,400.660000
1797,397.890000
1798,398.390000
1799,400.810000
1800,400.810000
1801,400.980000
1802,401.840000
1803,401.170000
1804,402.020000
1805,400.510000
1806,403.470000
1807,417.980000
1808,415.680000
1809,428.610000
1810,434.350000
1811,430.690000
1812,454.870000
1813,434.140000
1814,434.970000
1815,444.380000
1816,452.560000
1817,436.600000
1818,440.260000
1819,451.990000
1820,453.830000
1821,450.730000
1822,439.850000
1823,440.850000
1824,442.010000
1825,437.620000
1826,441.540000
1827,443.290000
1828,451.320000
1829,470.840000
1830,457.170000
1831,456.770000
1832,457.090000
1833,457.980000
1834,472.660000
1835,473.440000
1836,471.700000
1837,470.940000
1838,471.380000
1839,472.740000
1840,473.520000
1841,473.680000
1842,471.180000
1843,461.850000
1844,456.710000
1845,453.550000
1846,460.510000
1847,452.400000
1848,452.830000
1849,442.830000
1850,448.280000
1851,442.610000
1852,444.600000
1853,439.370000
1854,433.540000
1855,434.010000
1856,434.320000
1857,436.520000
1858,436.540000
1859,434.580000
1860,427.420000
1861,428.080000
1862,434.380000
1863,437.940000
1864,438.540000
1865,439.600000
1866,434.500000
1867,431.580000
1868,429.930000
1869,431.500000
1870,431.560000
1871,431.360000
1872,432.430000
1873,437.580000
1874,444.370000
1875,442.150000
1876,440.290000
1877,436.420000
1878,434.250000
1879,436.950000
1880,435.400000
1881,434.980000
1882,439.250000
1883,448.730000
1884,447.250000
1885,449.360000
1886,449.690000
1887,449.490000
1888,449.800000
1889,442.350000
1890,440.840000
1891,440.510000
1892,442.220000
1893,441.080000
1894,442.890000
1895,443.490000
1896,451.660000
1897,455.450000
1898,449.820000
1899,448.880000
1900,458.320000
1901,456.230000
1902,456.150000
1903,456.200000
1904,451.730000
1905,448.040000
1906,452.330000
1907,458.860000
1908,459.520000
1909,460.240000
1910,456.870000
1911,449.690000
1912,459.840000
1913,460.750000
1914,461.610000
1915,453.950000
1916,453.500000
1917,453.300000
1918,453.280000
1919,460.960000
1920,465.020000
1921,477.630000
1922,483.540000
1923,501.380000
1924,487.330000
1925,478.010000
1926,471.470000
1927,469.680000
1928,468.340000
1929,468.660000
1930,468.700000
1931,470.130000
1932,464.720000
1933,460.980000
1934,460.230000
1935,463.010000
1936,510.290000
1937,534.550000
1938,514.240000
1939,535.740000
1940,536.130000
1941,533.790000
1942,547.940000
1943,548.230000
1944,546.060000
1945,547.730000
1946,534.980000
1947,529.850000
1948,531.660000
1949,539.240000
1950,545.860000
1951,533.040000
1952,533.090000
1953,518.670000
1954,517.960000
1955,548.810000
1956,693.550000
1957,661.830000
1958,725.700000
1959,779.810000
1960,721.740000
1961,732.450000
1962,732.510000
1963,764.960000
1964,752.900000
1965,728.660000
1966,683.980000
1967,623.520000
1968,622.610000
1969,573.300000
1970,559.270000
1971,554.430000
1972,555.260000
1973,544.790000
1974,545.860000
1975,543.000000
1976,531.190000
1977,525.210000
1978,518.440000
1979,515.210000
1980,506.030000
1981,600.890000
1982,506.880000
1983,507.850000
1984,508.330000
1985,516.970000
1986,538.510000
1987,564.130000
1988,561.220000
1989,544.800000
1990,549.370000
1991,557.020000
1992,568.580000
1993,558.360000
1994,575.400000
1995,589.070000
1996,560.660000
1997,569.840000
1998,575.040000
1999,577.180000
2000,586.050000
2001,598.360000
2002,608.050000
2003,610.610000
2004,624.150000
2005,614.640000
2006,623.740000
2007,599.730000
2008,582.540000
2009,564.950000
2010,560.970000
2011,558.240000
2012,562.020000
2013,543.880000
2014,538.410000
2015,529.990000
2016,524.200000
2017,528.060000
2018,518.790000
2019,512.630000
2020,513.010000
2021,515.390000
2022,516.780000
2023,517.540000
2024,514.710000
2025,518.670000
2026,519.710000
2027,520.460000
2028,520.400000
2029,545.800000
2030,567.810000
2031,658.490000
2032,630.860000
2033,698.280000
2034,626.250000
2035,609.110000
2036,593.260000
2037,591.830000
2038,601.660000
2039,691.460000
2040,613.040000
2041,597.890000
2042,586.440000
2043,575.610000
2044,565.610000
2045,565.480000
2046,554.950000
2047,553.940000
2048,554.830000
2049,549.880000
2050,541.670000
2051,542.810000
2052,538.980000
2053,529.660000
2054,530.710000
2055,529.490000
2056,533.940000
2057,532.620000
2058,532.800000
2059,534.430000
2060,529.850000
2061,545.450000
2062,569.830000
2063,563.290000
2064,564.260000
2065,572.390000
2066,579.780000
2067,579.290000
2068,580.700000
2069,593.560000
2070,598.650000
2071,585.180000
2072,616.780000
2073,600.140000
2074,597.580000
2075,586.260000
2076,587.650000
2077,586.890000
2078,580.230000
2079,572.320000
2080,574.750000
2081,566.670000
2082,558.100000
2083,596.900000
2084,595.150000
2085,591.630000
2086,591.340000
2087,594.970000
2088,740.950000
2089,701.620000
2090,677.920000
2091,725.600000
2092,950.790000
2093,854.990000
2094,900.170000
2095,927.470000
2096,867.780000
2097,764.060000
2098,748.230000
2099,734.530000
2100,729.330000
2101,697.100000
2102,709.240000
2103,703.510000
2104,666.550000
2105,657.460000
2106,636.620000
2107,627.550000
2108,610.520000
2109,602.030000
2110,589.080000
2111,586.510000
2112,575.860000
2113,575.010000
2114,566.850000
2115,562.260000
2116,562.120000
2117,564.520000
2118,563.290000
2119,551.620000
2120,551.190000
2121,567.280000
2122,563.760000
2123,553.780000
2124,555.560000
2125,554.460000
2126,554.960000
2127,560.210000
2128,568.470000
2129,564.130000
2130,558.320000
2131,558.630000
2132,561.140000
2133,582.360000
2134,606.700000
2135,604.490000
2136,609.030000
2137,625.120000
2138,643.550000
2139,655.620000
2140,671.550000
2141,663.360000
2142,660.440000
2143,643.320000
2144,633.520000
2145,627.300000
2146,617.040000
2147,611.340000
2148,614.550000
2149,630.440000
2150,637.840000
2151,646.220000
2152,649.500000
2153,648.700000
2154,648.420000
2155,640.140000
2156,631.440000
2157,641.860000
2158,657.120000
2159,651.040000
2160,649.820000
2161,647.330000
2162,689.580000
2163,647.160000
2164,635.740000
2165,625.380000
2166,626.550000
2167,641.370000
2168,769.650000
2169,856.130000
2170,890.250000
2171,862.350000
2172,992.950000
2173,988.250000
2174,1068.140000
2175,952.830000
2176,877.760000
2177,780.300000
2178,791.200000
2179,759.360000
2180,717.970000
2181,718.090000
2182,674.610000
2183,655.430000
2184,654.320000
2185,661.070000
2186,677.330000
2187,681.460000
2188,672.610000
2189,668.940000
2190,670.570000
2191,660.570000
2192,650.840000
2193,641.160000
2194,634.530000
2195,623.280000
2196,622.370000
2197,620.820000
2198,616.000000
2199,607.940000
2200,607.120000
2201,611.240000
2202,609.780000
2203,609.590000
2204,610.820000
2205,642.640000
2206,648.900000
2207,688.810000
2208,708.010000
2209,711.630000
2210,711.410000
2211,717.120000
2212,725.740000
2213,702.520000
2214,677.500000
2215,678.270000
2216,678.770000
2217,692.510000
2218,679.670000
2219,667.450000
2220,652.170000
2221,651.090000
2222,731.850000
2223,836.040000
2224,1069.690000
2225,837.140000
2226,778.700000
2227,747.640000
2228,724.430000
2229,710.700000
2230,690.950000
2231,684.530000
2232,671.880000
2233,657.240000
2234,647.700000
2235,643.640000
2236,642.690000
2237,643.490000
2238,643.480000
2239,644.290000
2240,645.840000
2241,656.590000
2242,665.040000
2243,662.310000
2244,665.080000
2245,655.480000
2246,648.760000
2247,651.150000
2248,650.400000
2249,652.010000
2250,650.840000
2251,644.950000
2252,637.530000
2253,637.460000
2254,637.630000
2255,641.270000
2256,637.530000
2257,643.860000
2258,664.520000
2259,682.330000
2260,923.120000
2261,818.430000
2262,732.320000
2263,723.660000
2264,703.310000
2265,689.630000
2266,679.610000
2267,687.790000
2268,689.770000
2269,689.560000
2270,682.580000
2271,669.800000
2272,664.170000
2273,662.880000
2274,664.670000
2275,651.770000
2276,648.150000
2277,651.060000
2278,650.250000
2279,657.610000
2280,672.690000
2281,698.650000
2282,722.530000
2283,725.240000
2284,727.440000
2285,725.320000
2286,723.550000
2287,731.500000
2288,751.400000
2289,757.730000
2290,898.640000
2291,772.520000
2292,766.680000
2293,815.490000
2294,926.860000
2295,826.290000
2296,776.160000
2297,743.740000
2298,747.240000
2299,724.500000
2300,711.800000
2301,697.820000
2302,682.880000
2303,717.740000
2304,761.390000
2305,951.680000
2306,903.280000
2307,907.160000
2308,841.620000
2309,798.240000
2310,768.140000
2311,749.040000
2312,738.520000
2313,727.890000
2314,712.200000
2315,709.220000
2316,704.640000
2317,690.470000
2318,691.990000
2319,681.480000
2320,676.220000
2321,676.720000
2322,684.150000
2323,677.160000
2324,676.230000
2325,678.500000
2326,662.030000
2327,672.120000
2328,678.830000
2329,676.730000
2330,666.560000
2331,676.450000
2332,683.870000
2333,672.570000
2334,670.140000
2335,667.040000
2336,678.100000
2337,686.240000
2338,737.840000
2339,685.980000
2340,689.680000
2341,715.220000
2342,769.050000
2343,742.070000
2344,740.320000
2345,724.760000
2346,726.080000
2347,727.670000
2348,725.940000
2349,722.770000
2350,718.800000
2351,720.080000
2352,726.420000
2353,731.030000
2354,729.550000
2355,727.810000
2356,716.860000
2357,713.480000
2358,713.840000
2359,709.210000
2360,718.160000
2361,704.980000
2362,700.640000
2363,704.620000
2364,707.340000
2365,701.220000
2366,737.380000
2367,725.120000
2368,737.360000
2369,729.910000
2370,721.200000
2371,721.530000
2372,711.460000
2373,705.630000
2374,709.610000
2375,719.630000
2376,707.210000
2377,709.320000
2378,710.470000
2379,720.300000
2380,709.530000
2381,709.550000
2382,710.000000
2383,699.870000
2384,695.840000
2385,696.600000
2386,695.490000
2387,699.090000
2388,715.670000
2389,714.840000
2390,709.970000
2391,703.120000
2392,719.680000
2393,718.750000
2394,715.220000
2395,720.320000
2396,712.260000
2397,703.490000
2398,703.480000
2399,708.110000
2400,705.540000
2401,721.820000
2402,737.990000
2403,754.800000
2404,774.920000
2405,805.900000
2406,827.150000
2407,806.340000
2408,804.710000
2409,806.120000
2410,785.250000
2411,786.770000
2412,786.660000
2413,766.230000
2414,766.680000
2415,767.250000
2416,749.040000
2417,765.190000
2418,770.570000
2419,976.090000
2420,983.590000
2421,806.250000
2422,910.720000
2423,973.180000
2424,918.140000
2425,889.110000
2426,845.230000
2427,812.330000
2428,789.880000
2429,777.440000
2430,776.520000
2431,773.200000
2432,761.510000
2433,760.240000
2434,746.670000
2435,743.360000
2436,742.760000
2437,734.430000
2438,725.710000
2439,728.410000
2440,728.230000
2441,729.350000
2442,743.400000
2443,739.960000
2444,732.030000
2445,732.520000
2446,732.800000
2447,730.380000
2448,819.560000
2449,845.190000
2450,856.400000
2451,839.980000
2452,819.440000
2453,805.060000
2454,799.940000
2455,883.670000
2456,846.630000
2457,831.680000
2458,826.280000
2459,837.130000
2460,862.200000
2461,848.780000
2462,829.480000
2463,820.360000
2464,801.110000
2465,802.360000
2466,802.330000
2467,800.180000
2468,805.090000
2469,785.480000
2470,781.850000
2471,765.750000
2472,767.080000
2473,756.890000
2474,752.310000
2475,758.600000
2476,754.650000
2477,768.030000
2478,758.100000
2479,753.380000
2480,751.290000
2481,753.990000
2482,755.670000
2483,753.860000
2484,760.140000
2485,761.670000
2486,756.520000
2487,756.970000
2488,757.700000
2489,762.340000
2490,761.460000
2491,760.940000
2492,763.090000
2493,778.970000
2494,780.570000
2495,778.970000
2496,772.630000
2497,781.420000
2498,773.420000
2499,800.310000
2500,781.810000
2501,781.880000
2502,779.220000
2503,771.990000
2504,768.200000
2505,767.800000
2506,767.550000
2507,770.510000
2508,768.350000
2509,774.070000
2510,835.570000
2511,811.840000
2512,805.780000
2513,812.110000
2514,808.220000
2515,795.520000
2516,792.670000
2517,775.950000
2518,776.050000
2519,775.720000
2520,775.610000
2521,780.770000
2522,778.080000
2523,778.990000
2524,781.400000
2525,780.110000
2526,782.690000
2527,784.630000
2528,780.970000
2529,782.100000
2530,782.390000
2531,782.970000
2532,783.450000
2533,788.210000
2534,787.930000
2535,785.920000
2536,786.050000
2537,785.600000
2538,790.050000
2539,805.570000
2540,801.040000
2541,788.700000
2542,789.730000
2543,792.460000
2544,791.940000
2545,794.190000
2546,792.330000
2547,794.650000
2548,793.070000
2549,795.120000
2550,795.710000
2551,797.430000
2552,800.190000
2553,794.950000
2554,797.700000
2555,797.560000
2556,797.120000
2557,803.110000
2558,802.300000
2559,800.980000
2560,800.730000
2561,804.130000
2562,805.450000
2563,804.650000
2564,806.840000
2565,803.210000
2566,807.990000
2567,806.730000
2568,808.240000
2569,811.980000
2570,809.190000
2571,808.290000
2572,809.160000
2573,813.330000
2574,814.490000
2575,814.230000
2576,817.890000
2577,811.870000
2578,812.230000
2579,815.570000
2580,812.710000
2581,817.950000
2582,828.630000
2583,880.750000
2584,886.410000
2585,867.760000
2586,859.890000
2587,852.940000
2588,842.740000
2589,855.250000
2590,862.190000
2591,873.680000
2592,873.490000
2593,862.530000
2594,843.710000
2595,844.670000
2596,847.100000
2597,845.860000
2598,846.390000
2599,844.560000
2600,845.880000
2601,840.310000
2602,832.820000
2603,827.650000
2604,831.200000
2605,844.230000
2606,838.580000
2607,844.760000
2608,850.950000
2609,838.820000
2610,836.630000
2611,831.820000
2612,833.990000
2613,843.220000
2614,849.510000
2615,845.280000
2616,836.510000
2617,843.340000
2618,859.280000
2619,856.830000
2620,852.220000
2621,860.220000
2622,844.710000
2623,840.800000
2624,840.800000
2625,839.390000
2626,844.890000
2627,856.900000
2628,856.820000
2629,844.850000
2630,868.490000
2631,867.210000
2632,865.460000
2633,852.800000
2634,850.860000
2635,869.820000
2636,858.170000
2637,849.590000
2638,852.690000
2639,851.520000
2640,868.150000
2641,874.190000
2642,860.380000
2643,858.250000
2644,854.530000
2645,855.990000
2646,878.600000
2647,874.560000
2648,872.750000
2649,860.720000
2650,859.590000
2651,860.740000
2652,882.350000
2653,878.140000
2654,881.710000
2655,869.400000
2656,865.410000
2657,882.830000
2658,884.870000
2659,873.310000
2660,867.800000
2661,884.320000
2662,885.520000
2663,870.000000
2664,873.140000
2665,869.950000
2666,877.650000
2667,887.520000
2668,869.170000
2669,870.200000
2670,874.230000
2671,877.550000
2672,873.090000
2673,892.440000
2674,881.070000
2675,875.450000
2676,881.680000
2677,898.780000
2678,882.500000
2679,876.860000
2680,879.480000
2681,878.200000
2682,890.690000
2683,896.600000
2684,879.060000
2685,882.400000
2686,881.610000
2687,888.180000
2688,897.980000
2689,889.980000
2690,884.450000
2691,884.290000
2692,888.490000
2693,890.210000
2694,908.910000
2695,890.910000
2696,892.390000
2697,891.610000
2698,892.940000
2699,911.350000
2700,895.840000
2701,891.210000
2702,891.350000
2703,893.500000
2704,915.580000
2705,915.440000
2706,921.700000
2707,941.820000
2708,940.390000
2709,939.960000
2710,954.510000
2711,943.200000
2712,925.210000
2713,919.640000
2714,921.190000
2715,913.110000
2716,903.470000
2717,902.450000
2718,911.860000
2719,925.160000
2720,904.590000
2721,903.020000
2722,908.180000
2723,918.660000
2724,920.570000
2725,908.080000
2726,939.390000
2727,940.750000
2728,936.670000
2729,950.350000
2730,956.580000
2731,933.050000
2732,936.540000
2733,946.470000
2734,960.350000
2735,960.880000
2736,961.720000
2737,948.650000
2738,942.120000
2739,962.860000
2740,987.300000
2741,967.610000
2742,958.640000
2743,937.750000
2744,939.470000
2745,931.210000
2746,920.840000
2747,931.190000
2748,945.990000
2749,965.120000
2750,952.640000
2751,969.810000
2752,974.810000
2753,948.700000
2754,965.300000
2755,956.000000
2756,971.180000
2757,973.560000
2758,951.440000
2759,949.750000
2760,947.820000
2761,930.580000
2762,929.360000
2763,932.320000
2764,933.750000
2765,947.320000
2766,948.390000
2767,934.010000
2768,941.520000
2769,973.470000
2770,986.980000
2771,983.630000
2772,984.830000
2773,984.440000
2774,987.030000
2775,989.360000
2776,969.600000
2777,964.370000
2778,971.820000
2779,1037.250000
2780,1188.090000
2781,1146.200000
2782,1176.930000
2783,1132.360000
2784,1110.070000
2785,1087.230000
2786,1076.800000
2787,1052.120000
2788,1049.490000
2789,1028.650000
2790,1043.170000
2791,1056.160000
2792,1048.470000
2793,1028.840000
2794,1028.130000
2795,1001.440000
2796,1005.520000
2797,1005.240000
2798,991.250000
2799,984.330000
2800,1006.870000
2801,987.240000
2802,985.170000
2803,986.340000
2804,1001.300000
2805,1019.220000
2806,1036.810000
2807,1021.510000
2808,1012.870000
2809,1021.560000
2810,1045.130000
2811,1044.170000
2812,1044.180000
2813,1044.890000
2814,1044.780000
2815,1041.450000
2816,1019.380000
2817,1052.630000
2818,1051.260000
2819,1069.540000
2820,1043.520000
2821,1045.430000
2822,1039.850000
2823,1024.000000
2824,1027.740000
2825,1021.820000
2826,1001.420000
2827,1015.430000
2828,1021.850000
2829,1024.140000
2830,1006.560000
2831,1002.980000
2832,1030.000000
2833,1028.920000
2834,1028.260000
2835,1028.590000
2836,1029.470000
2837,1028.710000
2838,1030.680000
2839,1035.550000
2840,1038.790000
2841,1061.240000
2842,1045.990000
2843,1032.040000
2844,1013.710000
2845,1012.050000
2846,1012.870000
2847,1000.070000
2848,988.900000
2849,1002.530000
2850,1016.670000
2851,1017.460000
2852,1038.610000
2853,1127.610000
2854,1040.600000
2855,1040.910000
2856,1032.590000
2857,1016.110000
2858,1019.240000
2859,1020.530000
2860,1018.990000
2861,1022.650000
2862,1006.380000
2863,1013.730000
2864,1015.480000
2865,1003.860000
2866,1002.800000
2867,1011.860000
2868,1018.280000
2869,1003.510000
2870,1010.670000
2871,1028.820000
2872,1021.630000
2873,1007.850000
2874,1012.670000
2875,1035.180000
2876,1048.000000
2877,1097.620000
2878,1157.060000
2879,1196.510000
2880,1215.240000
2881,1232.720000
2882,1270.060000
2883,1326.840000
2884,1366.510000
2885,1500.330000
2886,1483.230000
2887,1474.150000
2888,1396.430000
2889,1387.230000
2890,1389.850000
2891,1388.390000
2892,1409.560000
2893,1366.250000
2894,1380.780000
2895,1374.160000
2896,1387.250000
2897,1346.510000
2898,1390.150000
2899,1391.670000
2900,1393.890000
2901,1394.660000
2902,1397.720000
2903,1394.330000
2904,1360.100000
2905,1355.210000
2906,1361.080000
2907,1391.210000
2908,1396.970000
2909,1369.020000
2910,1357.450000
2911,1455.290000
2912,1579.920000
2913,1408.980000
2914,1429.220000
2915,1435.720000
2916,1460.840000
2917,1468.100000
2918,1496.750000
2919,1447.710000
2920,1472.840000
2921,1367.880000
2922,1368.040000
2923,1359.860000
2924,1374.620000
2925,1377.210000
2926,1409.900000
2927,1423.400000
2928,1445.450000
2929,1471.360000
2930,1503.040000
2931,1536.910000
2932,1579.320000
2933,1566.260000
2934,1499.190000
2935,1479.530000
2936,1472.400000
2937,1537.330000
2938,1501.680000
2939,1465.420000
2940,1415.410000
2941,1383.940000
2942,1383.260000
2943,1345.160000
2944,1348.370000
2945,1329.840000
2946,1330.760000
2947,1352.450000
2948,1346.650000
2949,1348.910000
2950,1351.220000
2951,1353.200000
2952,1312.680000
2953,1225.520000
2954,1170.120000
2955,1131.880000
2956,1111.650000
2957,1091.300000
2958,1089.660000
2959,1069.190000
2960,1070.470000
2961,1069.370000
2962,1073.200000
2963,1083.680000
2964,1085.110000
2965,1074.140000
2966,1075.010000
2967,1078.260000
2968,1085.130000
2969,1088.800000
2970,1079.270000
2971,7925.710000
2972,14107.420000
2973,12527.080000
2974,11422.450000
2975,5195.160000
2976,2452.910000
2977,2335.440000
2978,2357.650000
2979,3315.270000
2980,2835.080000
2981,2591.290000
2982,2383.780000
2983,2185.540000
2984,2231.340000
2985,1796.470000
2986,1496.300000
2987,1512.950000
2988,1559.010000
2989,1534.280000
2990,1565.850000
2991,1565.830000
2992,1591.770000
2993,1560.980000
2994,1448.380000
2995,1445.760000
2996,1762.320000
2997,1473.620000
2998,1603.660000
2999,1559.410000
3000,1503.660000
3001,1433.760000
3002,1438.760000
3003,1792.620000
3004,1539.130000
3005,1409.630000
3006,1374.880000
3007,1413.380000
3008,1504.410000
3009,1446.400000
3010,1499.270000
3011,1393.560000
3012,1383.200000
3013,1391.760000
3014,1334.040000
3015,1356.470000
3016,1344.620000
3017,1319.810000
3018,1345.060000
3019,1328.890000
3020,1322.260000
3021,1368.250000
3022,1326.650000
3023,1329.850000
3024,1327.500000
3025,1335.940000
3026,1370.970000
3027,1345.440000
3028,1314.190000
3029,1281.740000
3030,1279.690000
3031,1481.800000
3032,1627.490000
3033,1723.750000
3034,1841.290000
3035,1810.160000
3036,1753.780000
3037,1808.600000
3038,1960.200000
3039,1817.410000
3040,1810.800000
3041,1765.750000
3042,1713.080000
3043,1724.460000
3044,1713.420000
3045,1784.650000
3046,1824.040000
3047,1728.880000
3048,1804.800000
3049,1749.650000
3050,1737.630000
3051,1756.480000
3052,1722.480000
3053,1669.110000
3054,1695.840000
3055,1603.610000
3056,1696.910000
3057,1812.400000
3058,2206.390000
3059,1698.300000
3060,1744.620000
3061,1817.340000
3062,1803.520000
3063,1806.390000
3064,1819.680000
3065,1841.720000
3066,1787.570000
3067,1706.070000
3068,2014.530000
3069,12642.980000
3070,13043.500000
3071,12476.670000
3072,10121.950000
3073,2492.740000
3074,3187.640000
3075,4013.330000
3076,3887.820000
3077,4047.350000
3078,3803.470000
3079,3068.180000
3080,2546.710000
3081,2493.510000
3082,2160.200000
3083,2385.090000
3084,2178.960000
3085,2206.930000
3086,2186.080000
3087,2181.910000
3088,1848.500000
3089,1583.680000
3090,1505.430000
3091,1404.630000
3092,1393.930000
3093,1390.220000
3094,1427.250000
3095,1636.730000
3096,1470.140000
3097,1583.360000
3098,1536.870000
3099,1512.730000
3100,1492.970000
3101,1434.870000
3102,1471.090000
3103,1399.830000
3104,1894.690000
3105,1483.230000
3106,1387.640000
3107,1344.140000
3108,1340.920000
3109,1344.790000
3110,1349.020000
3111,1421.400000
3112,1383.480000
3113,1364.170000
3114,1347.590000
3115,1344.740000
3116,1347.110000
3117,1340.100000
3118,1315.260000
3119,1300.730000
3120,1307.960000
3121,1310.270000
3122,1329.550000
3123,1337.870000
3124,1319.250000
3125,1338.900000
3126,1315.650000
3127,1316.750000
3128,1333.200000
3129,1333.820000
3130,1516.940000
3131,1397.400000
3132,1406.220000
3133,1350.940000
3134,1339.590000
3135,1393.930000
3136,1360.510000
3137,1483.440000
3138,1505.260000
3139,1713.080000
3140,1856.270000
3141,1614.100000
3142,1584.780000
3143,1610.400000
3144,1637.850000
3145,1622.060000
3146,1587.720000
3147,1739.850000
3148,1751.560000
3149,1789.590000
3150,1755.440000
3151,1773.320000
3152,2010.440000
3153,1814.330000
3154,1954.130000
3155,1839.270000
3156,1331.800000
3157,1350.270000
3158,7691.600000
3159,15386.880000
3160,15431.960000
3161,11272.310000
3162,2438.880000
3163,2542.550000
3164,2466.090000
3165,2316.900000
3166,2304.470000
3167,2289.980000
3168,2387.390000
3169,2333.900000
3170,3385.050000
3171,3960.490000
3172,3776.900000
3173,3812.070000
3174,2965.700000
3175,2328.020000
3176,2396.140000
3177,2563.960000
3178,2128.380000
3179,2102.540000
3180,2048.850000
3181,2043.240000
3182,2093.010000
3183,2085.390000
3184,2125.920000
3185,2209.240000
3186,2128.270000
3187,2015.550000
3188,1979.920000
3189,1921.130000
3190,1793.840000
3191,2001.940000
3192,1969.540000
3193,1542.940000
3194,1539.870000
3195,1510.160000
3196,1540.800000
3197,1583.070000
3198,1535.840000
3199,1452.650000
3200,1440.340000
3201,1446.610000
3202,1445.040000
3203,1420.860000
3204,1400.360000
3205,1409.190000
3206,1397.600000
3207,1481.770000
3208,1406.410000
3209,1390.320000
3210,1482.660000
3211,1511.090000
3212,1513.970000
3213,1412.960000
3214,1413.300000
3215,1418.080000
3216,1435.430000
3217,1377.490000
3218,1396.670000
3219,1487.390000
3220,1435.130000
3221,1381.180000
3222,1378.230000
3223,1378.570000
3224,1382.140000
3225,1387.800000
3226,1555.620000
3227,1371.810000
3228,1411.920000
3229,1451.710000
3230,1447.410000
3231,1468.000000
3232,1366.570000
3233,1403.620000
3234,1389.740000
3235,1829.700000
3236,1629.720000
3237,1563.400000
3238,1491.710000
3239,1375.610000
3240,1224.540000
3241,1222.980000
3242,1228.770000
3243,1202.100000
3244,1211.430000
3245,1220.640000
3246,1204.470000
3247,1204.280000
3248,1278.770000
3249,1326.830000
3250,1358.630000
3251,1378.240000
3252,1403.610000
3253,1563.640000
3254,1603.680000
3255,1798.100000
3256,1745.060000
3257,1721.440000
3258,1716.760000
3259,1714.050000
3260,1726.740000
3261,1750.280000
3262,1700.940000
3263,1753.330000
3264,1890.200000
3265,1769.000000
3266,1867.850000
3267,1899.820000
3268,1877.810000
3269,2024.580000
3270,2447.120000
3271,2098.950000
3272,2095.760000
3273,1808.300000
3274,1755.580000
3275,1701.600000
3276,1662.300000
3277,1663.320000
3278,1662.870000
3279,1667.000000
3280,1681.100000
3281,1668.500000
3282,2377.810000
3283,2466.880000
3284,2041.040000
3285,1994.980000
3286,1894.650000
3287,1881.990000
3288,1896.850000
3289,1972.600000
3290,1931.400000
3291,1930.270000
3292,1897.130000
3293,1902.840000
3294,1892.870000
3295,1868.160000
3296,1853.330000
3297,1826.670000
3298,1658.170000
3299,1621.130000
3300,1533.210000
3301,1448.170000
3302,1453.350000
3303,1455.410000
3304,1462.850000
3305,1426.570000
3306,1404.170000
3307,1510.810000
3308,1598.790000
3309,1649.840000
3310,1601.330000
3311,1539.240000
3312,1485.060000
3313,1453.680000
3314,1448.160000
3315,1416.390000
3316,1401.730000
3317,1403.640000
3318,1401.980000
3319,1397.840000
3320,1373.210000
3321,1373.200000
3322,1368.280000
3323,1376.200000
3324,1401.760000
3325,1447.070000
3326,1436.970000
3327,1412.460000
3328,1444.830000
3329,1451.970000
3330,1449.390000
3331,1452.150000
3332,1446.070000
3333,1431.200000
3334,1417.990000
3335,1396.430000
3336,1419.100000
3337,1851.420000
3338,1554.550000
3339,1523.360000
3340,1495.180000
3341,1499.290000
3342,1465.780000
3343,1478.320000
3344,1457.370000
3345,1475.270000
3346,1488.070000
3347,1449.960000
3348,1414.880000
3349,1404.450000
3350,1415.390000
3351,1440.110000
3352,1472.830000
3353,1469.520000
3354,1508.870000
3355,1507.710000
3356,1497.680000
3357,1461.860000
3358,1454.100000
3359,1453.300000
3360,1413.620000
3361,1426.430000
3362,1464.830000
3363,1444.550000
3364,1411.660000
3365,1408.680000
3366,1464.240000
3367,1434.650000
3368,1432.040000
3369,1434.200000
3370,1435.820000
3371,1453.320000
3372,1480.880000
3373,1457.320000
3374,1452.840000
3375,1451.350000
3376,1426.850000
3377,1426.620000
3378,1460.800000
3379,1573.940000
3380,1986.650000
3381,1927.060000
3382,1912.820000
3383,1897.660000
3384,1900.720000
3385,1920.610000
3386,1886.940000
3387,1860.500000
3388,1956.290000
3389,1923.010000
3390,1932.940000
3391,1938.440000
3392,1892.700000
3393,1843.000000
3394,2105.890000
3395,1921.380000
3396,1859.350000
3397,1842.660000
3398,1903.500000
3399,1959.840000
3400,2029.440000
3401,2132.500000
3402,2010.910000
3403,2155.310000
3404,2052.710000
3405,2147.190000
3406,1880.920000
3407,1949.530000
3408,1908.560000
3409,1765.330000
3410,1811.550000
3411,1818.420000
3412,1770.280000
3413,1791.650000
3414,1829.250000
3415,1812.210000
3416,1777.910000
3417,1812.780000
3418,1858.020000
3419,1889.220000
3420,1947.060000
3421,1895.410000
3422,1869.770000
3423,1829.230000
3424,2263.530000
3425,1997.310000
3426,1912.770000
3427,1876.720000
3428,1878.510000
3429,1878.440000
3430,1895.010000
3431,1921.890000
3432,1886.940000
3433,1897.890000
3434,1882.210000
3435,1815.070000
3436,1774.570000
3437,1744.020000
3438,1725.910000
3439,1727.040000
3440,1701.200000
3441,1705.510000
3442,1706.120000
3443,1759.850000
3444,1818.240000
3445,1869.710000
3446,1834.170000
3447,1640.670000
3448,1567.400000
3449,1521.970000
3450,1492.180000
3451,1493.130000
3452,1493.920000
3453,1489.030000
3454,1465.860000
3455,1450.150000
3456,1452.050000
3457,1453.900000
3458,1454.240000
3459,1457.180000
3460,1469.130000
3461,1538.860000
3462,1509.970000
3463,1519.360000
3464,1540.860000
3465,1546.410000
3466,1545.060000
3467,1498.970000
3468,1498.550000
3469,1468.700000
3470,1510.290000
3471,7236.730000
3472,17351.980000
3473,17009.650000
3474,9993.480000
3475,3098.640000
3476,3211.250000
3477,3443.000000
3478,4272.350000
3479,3284.000000
3480,2890.240000
3481,2996.370000
3482,3166.110000
3483,3356.770000
3484,2980.850000
3485,3002.630000
3486,3025.960000
3487,2739.520000
3488,2673.170000
3489,2760.540000
3490,2779.660000
3491,2811.090000
3492,2783.890000
3493,2641.910000
3494,2641.690000
3495,2630.090000
3496,2585.080000
3497,2548.880000
3498,2648.340000
3499,2689.770000
3500,2485.700000
3501,2486.140000
3502,2469.380000
3503,2375.920000
3504,2481.670000
3505,2131.510000
3506,1848.940000
3507,1978.470000
3508,2017.670000
3509,2003.840000
3510,1990.900000
3511,1824.110000
3512,1780.560000
3513,1881.130000
3514,2268.400000
3515,2427.030000
3516,2416.040000
3517,2221.910000
3518,2176.750000
3519,2183.090000
3520,2146.120000
3521,2369.150000
3522,1977.770000
3523,1663.230000
3524,1669.240000
3525,1666.210000
3526,1656.660000
3527,1656.710000
3528,1657.470000
3529,1675.730000
3530,1658.960000
3531,1752.620000
3532,1735.040000
3533,1656.420000
3534,1648.630000
3535,1678.740000
3536,1657.790000
3537,1649.440000
3538,1669.130000
3539,1664.910000
3540,1656.420000
3541,1506.120000
3542,1500.460000
3543,1480.560000
3544,1461.940000
3545,1436.850000
3546,1459.750000
3547,1459.680000
3548,1447.670000
3549,1493.710000
3550,1551.920000
3551,1579.090000
3552,1582.740000
3553,1605.500000
3554,1624.590000
3555,1685.070000
3556,1769.480000
3557,1808.790000
3558,1777.490000
3559,1731.560000
3560,1736.210000
3561,1686.810000
3562,1692.260000
3563,1664.190000
3564,1634.900000
3565,1631.970000
3566,1639.270000
3567,1645.870000
3568,1633.570000
3569,1633.000000
3570,1632.650000
3571,1625.640000
3572,1589.550000
3573,1598.640000
3574,1644.200000
3575,1636.060000
3576,1620.700000
3577,1610.050000
3578,1593.040000
3579,1592.570000
3580,1610.800000
3581,1613.970000
3582,1646.750000
3583,1611.250000
3584,1648.150000
3585,1648.150000
3586,1599.340000
3587,1599.630000
3588,1590.270000
3589,1568.440000
3590,1605.560000
3591,1607.600000
3592,1607.880000
3593,1615.600000
3594,1631.940000
3595,1606.220000
3596,1595.470000
3597,1574.570000
3598,1597.010000
3599,1582.600000
3600,1600.780000
3601,1578.570000
3602,1586.580000
3603,1592.700000
3604,1579.510000
3605,1606.410000
3606,1588.480000
3607,1623.850000
3608,1605.620000
3609,1584.630000
3610,1610.240000
3611,1590.940000
3612,1679.480000
3613,1692.210000
3614,1664.830000
3615,1663.020000
3616,1667.500000
3617,1661.720000
3618,1665.790000
3619,1632.230000
3620,1631.810000
3621,1633.690000
3622,1628.730000
3623,1607.140000
3624,1596.420000
3625,1644.280000
3626,1636.750000
3627,1631.150000
3628,1608.280000
3629,1599.640000
3630,1703.460000
3631,1658.350000
3632,1648.070000
3633,1687.220000
3634,1680.830000
3635,1656.540000
3636,1741.860000
3637,1660.010000
3638,1645.630000
3639,1646.380000
3640,1620.820000
3641,1630.280000
3642,1643.370000
3643,1659.760000
3644,1663.730000
3645,1662.490000
3646,1690.570000
3647,1685.670000
3648,1658.970000
3649,1656.330000
3650,1659.970000
3651,1630.400000
3652,1621.070000
3653,1649.050000
3654,1732.320000
3655,1653.670000
3656,1627.550000
3657,1652.390000
3658,1627.380000
3659,1632.050000
3660,1683.640000
3661,1632.950000
3662,1652.090000
3663,1634.230000
3664,1656.720000
3665,1638.000000
3666,1637.910000
3667,1656.760000
3668,1636.830000
3669,1658.760000
3670,1642.580000
3671,1641.910000
3672,1682.290000
3673,1673.590000
3674,1639.850000
3675,1650.860000
3676,1656.150000
3677,1644.630000
3678,1649.680000
3679,1675.440000
3680,1647.730000
3681,1645.750000
3682,1659.110000
3683,1664.460000
3684,1648.790000
3685,1673.930000
3686,1650.970000
3687,1724.720000
3688,1754.860000
3689,1777.690000
3690,1796.720000
3691,1798.680000
3692,1780.990000
3693,1765.110000
3694,1739.250000
3695,1738.480000
3696,1702.200000
3697,1697.230000
3698,1682.540000
3699,1705.780000
3700,1702.180000
3701,1705.020000
3702,1706.290000
3703,1708.720000
3704,1706.520000
3705,1706.690000
3706,1704.900000
3707,1680.110000
3708,1671.010000
3709,1702.030000
3710,1671.950000
3711,1690.280000
3712,1714.910000
3713,1678.050000
3714,1692.050000
3715,1689.720000
3716,1679.150000
3717,1706.930000
3718,1680.240000
3719,1695.370000
3720,1693.010000
3721,1683.010000
3722,1711.890000
3723,1686.120000
3724,1711.230000
3725,1704.700000
3726,1716.300000
3727,1692.830000
3728,1700.730000
3729,1704.710000
3730,1691.500000
3731,1720.490000
3732,1694.330000
3733,1713.460000
3734,1704.900000
3735,1699.050000
3736,1727.360000
3737,1722.350000
3738,1834.240000
3739,1822.220000
3740,1781.790000
3741,1960.100000
3742,1903.320000
3743,1865.660000
3744,1833.340000
3745,1821.800000
3746,2011.320000
3747,2177.080000
3748,1995.400000
3749,1909.880000
3750,1850.960000
3751,1843.750000
3752,1840.030000
3753,1863.160000
3754,1963.960000
3755,1977.560000
3756,1964.920000
3757,1922.030000
3758,1858.500000
3759,1819.070000
3760,2085.440000
3761,1906.530000
3762,1863.970000
3763,1926.390000
3764,2056.410000
3765,2073.270000
3766,2064.150000
3767,2055.540000
3768,1963.720000
3769,1908.880000
3770,1856.940000
3771,1815.800000
3772,1781.620000
3773,1770.830000
3774,1773.850000
3775,1754.120000
3776,1731.740000
3777,1774.760000
3778,1769.490000
3779,1738.700000
3780,1760.340000
3781,1745.320000
3782,1756.460000
3783,1771.060000
3784,1738.280000
3785,1759.430000
3786,1751.930000
3787,1747.890000
3788,1774.240000
3789,1742.470000
3790,1768.270000
3791,1744.700000
3792,1773.330000
3793,1830.020000
3794,1752.000000
3795,1775.810000
3796,1750.720000
3797,1791.900000
3798,1756.990000
3799,1778.540000
3800,1773.740000
3801,1756.550000
3802,1791.780000
3803,1759.860000
3804,1774.830000
3805,1769.000000
3806,1763.990000
3807,1790.030000
3808,1757.090000
3809,1792.850000
3810,1766.430000
3811,1803.810000
3812,1768.650000
3813,1792.980000
3814,1778.030000
3815,1780.620000
3816,1794.500000
3817,1770.310000
3818,1804.330000
3819,1789.670000
3820,1811.260000
3821,1777.240000
3822,1796.640000
3823,1781.340000
3824,1808.460000
3825,1806.260000
3826,1782.130000
3827,1804.240000
3828,1779.840000
3829,1804.310000
3830,1785.750000
3831,1799.330000
3832,1797.100000
3833,1789.180000
3834,1804.910000
3835,1794.760000
3836,1808.200000
3837,1801.510000
3838,1818.070000
3839,1791.020000
3840,1818.920000
3841,1793.290000
3842,1811.850000
3843,1809.370000
3844,1794.240000
3845,1825.530000
3846,1796.290000
3847,1819.790000
3848,1819.170000
3849,1799.710000
3850,1813.370000
3851,1814.190000
3852,1816.950000
3853,1819.860000
3854,1817.660000
3855,1816.980000
3856,1826.790000
3857,1817.620000
3858,1807.660000
3859,1838.760000
3860,1805.290000
3861,1833.930000
3862,1813.650000
3863,1835.990000
3864,1818.210000
3865,1838.350000
3866,1816.550000
3867,1851.330000
3868,1816.350000
3869,1849.970000
3870,1819.690000
3871,1846.990000
3872,1820.950000
3873,1868.820000
3874,1826.970000
3875,1847.300000
3876,1829.650000
3877,1839.500000
3878,1845.680000
3879,1829.570000
3880,1856.170000
3881,1830.990000
3882,1855.580000
3883,1833.870000
3884,1858.440000
3885,1838.100000
3886,1859.210000
3887,1835.990000
3888,1860.400000
3889,1838.050000
3890,1860.740000
3891,1845.980000
3892,1859.980000
3893,1844.640000
3894,1863.100000
3895,1845.330000
3896,1869.950000
3897,1846.980000
3898,1860.740000
3899,1853.960000
3900,1855.200000
3901,1887.880000
3902,1871.430000
3903,1847.220000
3904,1878.890000
3905,1848.770000
3906,1887.170000
3907,1868.800000
3908,1865.240000
3909,1886.520000
3910,1875.420000
3911,1858.210000
3912,1885.380000
3913,1860.100000
3914,1886.550000
3915,1862.450000
3916,1879.280000
3917,1871.920000
3918,1885.150000
3919,1869.800000
3920,1863.210000
3921,1901.060000
3922,1867.210000
3923,1873.030000
3924,1915.060000
3925,1915.230000
3926,1911.890000
3927,1877.220000
3928,1875.810000
3929,1875.750000
3930,1877.260000
3931,1902.350000
3932,1887.720000
3933,1894.250000
3934,1898.110000
3935,1881.150000
3936,1882.260000
3937,1880.370000
3938,1882.260000
3939,1883.870000
3940,1885.030000
3941,1885.420000
3942,1913.260000
3943,1892.450000
3944,1886.700000
3945,1894.400000
3946,1889.620000
3947,1897.440000
3948,1898.480000
3949,1888.830000
3950,1923.100000
3951,1897.900000
3952,1924.000000
3953,1911.640000
3954,1904.390000
3955,1903.210000
3956,1898.770000
3957,1917.250000
3958,1919.570000
3959,1904.040000
3960,1903.160000
3961,1901.500000
3962,1902.110000
3963,1908.090000
3964,1953.250000
3965,1999.030000
3966,1959.790000
3967,1920.090000
3968,1916.150000
3969,1913.740000
3970,1953.350000
3971,1943.490000
3972,1917.220000
3973,1918.240000
3974,1916.300000
3975,1921.910000
3976,1928.970000
3977,1926.920000
3978,1947.140000
3979,1920.420000
3980,1925.720000
3981,1926.550000
3982,1922.390000
3983,1926.810000
3984,1929.310000
3985,1950.200000
3986,1928.830000
3987,1932.170000
3988,1932.280000
3989,1929.160000
3990,1927.890000
3991,1932.980000
3992,1934.010000
3993,1944.710000
3994,1935.390000
3995,1940.670000
3996,1943.630000
3997,1939.250000
3998,1960.340000
3999,1940.030000
4000,1943.770000
4001,1967.800000
4002,1953.390000
4003,1948.340000
4004,1944.500000
4005,1949.010000
4006,1954.940000
4007,1949.360000
4008,1962.860000
4009,1951.040000
4010,1956.390000
4011,1955.690000
4012,1957.600000
4013,1958.110000
4014,1953.230000
4015,1958.000000
4016,1963.090000
4017,1956.890000
4018,1963.400000
4019,1959.800000
4020,1960.560000
4021,1959.600000
4022,1965.680000
4023,1969.930000
4024,1963.580000
4025,1967.010000
4026,1981.100000
4027,1989.310000
4028,1975.640000
4029,1969.630000
4030,1971.460000
4031,1973.480000
4032,1973.930000
4033,1976.670000
4034,1972.310000
4035,1978.230000
4036,1977.760000
4037,1975.320000
4038,2147.440000
4039,2103.770000
4040,2029.640000
4041,1983.610000
4042,1994.630000
4043,2022.230000
4044,1984.400000
4045,1994.780000
4046,1989.150000
4047,1991.120000
4048,1993.410000
4049,2004.070000
4050,2026.610000
4051,2018.010000
4052,1991.690000
4053,2002.630000
4054,2008.800000
4055,2022.240000
4056,2037.190000
4057,2007.820000
4058,1999.690000
4059,2028.370000
4060,2006.130000
4061,2023.840000
4062,2028.390000
4063,2009.930000
4064,2023.660000
4065,2010.350000
4066,2010.760000
4067,2029.850000
4068,2009.830000
4069,2051.100000
4070,2014.230000
4071,2016.570000
4072,2035.950000
4073,2013.770000
4074,2039.790000
4075,2051.680000
4076,2018.250000
4077,2024.260000
4078,2019.420000
4079,2024.330000
4080,2018.800000
4081,2025.070000
4082,2028.260000
4083,2025.470000
4084,2024.890000
4085,2025.480000
4086,2026.930000
4087,2027.910000
4088,2025.170000
4089,2031.950000
4090,2025.780000
4091,2033.550000
4092,2032.680000
4093,2038.560000
4094,2033.890000
4095,2056.680000
4096,2042.910000
4097,2037.040000
4098,2035.990000
4099,2037.250000
4100,2041.550000
4101,2041.910000
4102,2042.810000
4103,2043.680000
4104,2041.760000
4105,2049.190000
4106,2047.210000
4107,2045.780000
4108,2046.520000
4109,2050.530000
4110,2050.280000
4111,2046.890000
4112,2053.240000
4113,2057.760000
4114,2051.860000
4115,2056.160000
4116,2056.980000
4117,2056.550000
4118,2056.940000
4119,2062.640000
4120,2060.760000
4121,2060.650000
4122,2059.310000
4123,2097.190000
4124,2066.320000
4125,2065.570000
4126,2065.890000
4127,2071.580000
4128,2069.930000
4129,2071.510000
4130,2068.490000
4131,2070.580000
4132,2070.320000
4133,2071.430000
4134,2073.080000
4135,2072.510000
4136,2075.890000
4137,2074.540000
4138,2076.370000
4139,2077.550000
4140,2078.670000
4141,2083.040000
4142,2125.590000
4143,2130.590000
4144,2089.330000
4145,2082.720000
4146,2090.180000
4147,2094.620000
4148,2086.640000
4149,2088.100000
4150,2091.140000
4151,2085.680000
4152,2091.110000
4153,2094.220000
4154,2092.710000
4155,2092.300000
4156,2096.410000
4157,2097.290000
4158,2097.890000
4159,2096.480000
4160,2098.110000
4161,2100.290000
4162,2106.780000
4163,2101.590000
4164,2106.130000
4165,2104.790000
4166,2104.880000
4167,2110.330000
4168,2105.290000
4169,2122.400000
4170,2110.280000
4171,2115.060000
4172,2109.490000
4173,2113.160000
4174,2113.820000
4175,2114.260000
4176,2119.360000
4177,2115.730000
4178,2115.030000
4179,2119.400000
4180,2118.270000
4181,2113.940000
4182,2112.200000
4183,2130.570000
4184,2119.590000
4185,2131.790000
4186,2125.200000
4187,2115.550000
4188,2124.730000
4189,2132.260000
4190,2130.360000
4191,2243.180000
4192,2166.990000
4193,2131.140000
4194,2137.460000
4195,2155.190000
4196,2139.510000
4197,2137.930000
4198,2139.810000
4199,2139.080000
4200,2137.140000
4201,2153.560000
4202,2142.040000
4203,2148.980000
4204,2142.560000
4205,2146.580000
4206,2148.790000
4207,2143.860000
4208,2149.460000
4209,2148.250000
4210,2157.400000
4211,2156.780000
4212,2161.350000
4213,2196.460000
4214,2189.710000
4215,2179.280000
4216,2155.570000
4217,2160.080000
4218,2167.200000
4219,2174.870000
4220,2159.200000
4221,2166.920000
4222,2166.040000
4223,2157.690000
4224,2163.140000
4225,2166.760000
4226,2166.670000
4227,2165.330000
4228,2168.450000
4229,2168.650000
4230,2177.870000
4231,2170.000000
4232,2169.090000
4233,2179.870000
4234,2183.950000
4235,2178.500000
4236,2180.600000
4237,2177.060000
4238,2185.420000
4239,2179.890000
4240,2180.690000
4241,2191.000000
4242,2184.110000
4243,2186.310000
4244,2184.250000
4245,2185.760000
4246,2206.860000
4247,2230.380000
4248,2193.510000
4249,2195.400000
4250,2216.530000
4251,2191.900000
4252,2195.180000
4253,2196.530000
4254,2195.760000
4255,2201.200000
4256,2196.900000
4257,2200.100000
4258,2202.860000
4259,2205.270000
4260,2239.120000
4261,2207.200000
4262,2225.430000
4263,2225.850000
4264,2229.670000
4265,2215.370000
4266,2209.560000
4267,2209.890000
4268,2213.320000
4269,2211.120000
4270,2211.030000
4271,2211.300000
4272,2213.100000
4273,2213.380000
4274,2211.250000
4275,2216.730000
4276,2196.610000
4277,2223.430000
4278,2223.550000
4279,2222.020000
4280,2223.480000
4281,2222.740000
4282,2216.270000
4283,2225.990000
4284,2224.620000
4285,2230.400000
4286,2224.020000
4287,2233.790000
4288,2237.830000
4289,2257.340000
4290,2238.330000
4291,2242.770000
4292,2239.310000
4293,2256.580000
4294,2263.230000
4295,2275.500000
4296,2257.040000
4297,2279.070000
4298,2263.120000
4299,2276.320000
4300,2260.180000
4301,2279.460000
4302,2264.830000
4303,2285.240000
4304,2289.280000
4305,2272.390000
4306,2280.670000
4307,2272.680000
4308,2283.480000
4309,2272.790000
4310,2288.450000
4311,2275.370000
4312,2291.620000
4313,2276.690000
4314,2293.340000
4315,2277.090000
4316,2294.350000
4317,2281.820000
4318,2293.060000
4319,2290.020000
4320,2295.020000
4321,2283.200000
4322,2284.610000
4323,2280.110000
4324,2294.990000
4325,2278.570000
4326,2296.150000
4327,2281.960000
4328,2286.690000
4329,2289.650000
4330,2284.830000
4331,2307.090000
4332,2294.950000
4333,2312.170000
4334,2292.110000
4335,2317.780000
4336,2304.160000
4337,2315.390000
4338,2308.940000
4339,2314.720000
4340,2313.490000
4341,2313.060000
4342,2319.980000
4343,2309.360000
4344,2321.030000
4345,2292.110000
4346,2345.920000
4347,2310.270000
4348,2331.280000
4349,2314.580000
4350,2311.080000
4351,2310.210000
4352,2319.930000
4353,2326.670000
4354,2319.030000
4355,2332.330000
4356,2307.120000
4357,2322.580000
4358,2305.420000
4359,2326.990000
4360,2312.740000
4361,2325.930000
4362,2312.290000
4363,2334.170000
4364,2315.230000
4365,2350.460000
4366,2330.580000
4367,2353.540000
4368,2347.860000
4369,2368.810000
4370,2395.110000
4371,2379.270000
4372,2323.230000
4373,2339.090000
4374,2352.320000
4375,2358.840000
4376,2392.480000
4377,2368.390000
4378,2326.310000
4379,2432.810000
4380,2371.160000
4381,2328.150000
4382,2329.300000
4383,2332.350000
4384,2367.690000
4385,2341.220000
4386,2332.990000
4387,2339.470000
4388,2349.600000
4389,2344.770000
4390,2339.970000
4391,2336.270000
4392,2344.420000
4393,2339.080000
4394,2345.760000
4395,2339.730000
4396,2342.000000
4397,2341.620000
4398,2351.060000
4399,2336.820000
4400,2332.000000
4401,2349.400000
4402,2349.970000
4403,2348.160000
4404,2335.210000
4405,2360.610000
4406,2353.180000
4407,2357.290000
4408,2356.160000
4409,2358.290000
4410,2357.360000
4411,2339.130000
4412,2374.030000
4413,2359.150000
4414,2365.640000
4415,2362.950000
4416,2368.140000
4417,2369.440000
4418,2366.060000
4419,2373.320000
4420,2360.280000
4421,2370.880000
4422,2376.320000
4423,2373.970000
4424,2369.640000
4425,2375.580000
4426,2392.350000
4427,2375.900000
4428,2375.190000
4429,2387.910000
4430,2380.180000
4431,2381.180000
4432,2382.060000
4433,2384.290000
4434,2380.030000
4435,2383.340000
4436,2385.200000
4437,2385.180000
4438,2384.170000
4439,2390.800000
4440,2365.710000
4441,2390.240000
4442,2386.240000
4443,2389.620000
4444,2372.550000
4445,2394.330000
4446,2400.870000
4447,2402.560000
4448,2395.600000
4449,2399.120000
4450,2464.810000
4451,2595.360000
4452,2533.720000
4453,2456.680000
4454,2452.190000
4455,2421.210000
4456,2405.550000
4457,2411.930000
4458,2406.240000
4459,2418.760000
4460,2409.240000
4461,2417.250000
4462,2406.140000
4463,2424.800000
4464,2406.520000
4465,2411.620000
4466,2416.600000
4467,2431.220000
4468,2441.220000
4469,2472.890000
4470,2461.080000
4471,2430.100000
4472,2424.120000
4473,2427.670000
4474,2423.710000
4475,2429.540000
4476,2429.400000
4477,2432.660000
4478,2431.510000
4479,2435.920000
4480,2428.060000
4481,2405.600000
4482,2433.020000
4483,2434.060000
4484,2412.880000
4485,2439.950000
4486,2439.930000
4487,2422.730000
4488,2438.910000
4489,2464.300000
4490,2469.610000
4491,2508.730000
4492,2561.280000
4493,2512.370000
4494,2467.100000
4495,2463.530000
4496,2448.140000
4497,2442.520000
4498,2452.070000
4499,2452.930000
4500,2450.770000
4501,2442.830000
4502,2452.660000
4503,2458.790000
4504,2442.640000
4505,2457.660000
4506,2465.230000
4507,2471.670000
4508,2467.890000
4509,2487.540000
4510,2474.240000
4511,2523.330000
4512,2475.150000
4513,2468.670000
4514,2470.230000
4515,2475.580000
4516,2471.340000
4517,2474.580000
4518,2477.530000
4519,2456.870000
4520,2473.640000
4521,2466.130000
4522,2464.620000
4523,2479.470000
4524,2485.570000
4525,2529.660000
4526,2477.830000
4527,2484.900000
4528,2493.820000
4529,2520.590000
4530,2485.870000
4531,2502.590000
4532,2536.670000
4533,2545.250000
4534,2543.790000
4535,2545.890000
4536,2542.930000
4537,2511.300000
4538,2496.880000
4539,2511.120000
4540,2499.330000
4541,2530.160000
4542,2499.370000
4543,2501.300000
4544,2503.180000
4545,2503.650000
4546,2503.000000
4547,2511.490000
4548,2521.820000
4549,2511.570000
4550,2516.340000
4551,2510.160000
4552,2512.800000
4553,2517.010000
4554,2518.570000
4555,2511.780000
4556,2522.170000
4557,2516.820000
4558,2514.670000
4559,2501.790000
4560,2525.910000
4561,2520.820000
4562,2522.580000
4563,2501.080000
4564,2525.550000
4565,2530.640000
4566,2532.110000
4567,2517.680000
4568,2524.430000
4569,2529.530000
4570,2532.660000
4571,2509.680000
4572,2562.630000
4573,2655.140000
4574,2595.860000
4575,2554.740000
4576,2560.370000
4577,2551.550000
4578,2534.900000
4579,2547.860000
4580,2540.090000
4581,2550.960000
4582,2540.530000
4583,2551.320000
4584,2549.140000
4585,2545.700000
4586,2529.560000
4587,2564.650000
4588,2550.200000
4589,2555.060000
4590,2554.030000
4591,2559.670000
4592,2544.370000
4593,2555.320000
4594,2555.150000
4595,2570.920000
4596,2556.850000
4597,2565.370000
4598,2563.740000
4599,2568.240000
4600,2557.800000
4601,2552.820000
4602,2569.120000
4603,2570.940000
4604,2550.750000
4605,2566.270000
4606,2577.580000
4607,2570.740000
4608,2558.680000
4609,2574.500000
4610,2577.010000
4611,2574.950000
4612,2579.690000
4613,2576.900000
4614,2660.570000
4615,2577.930000
4616,2582.060000
4617,2589.010000
4618,2587.750000
4619,2588.880000
4620,2589.460000
4621,2586.380000
4622,2593.460000
4623,2574.450000
4624,2593.480000
4625,2618.260000
4626,2595.350000
4627,2600.050000
4628,2596.530000
4629,2599.800000
4630,2571.640000
4631,2599.900000
4632,2599.380000
4633,2607.140000
4634,2605.360000
4635,2606.640000
4636,2603.220000
4637,2606.500000
4638,2592.620000
4639,2605.860000
4640,2610.420000
4641,2611.750000
4642,2596.860000
4643,2610.170000
4644,2615.600000
4645,2605.440000
4646,2606.250000
4647,2612.990000
4648,2622.250000
4649,2601.110000
4650,2623.940000
4651,2625.520000
4652,2621.130000
4653,2614.450000
4654,2624.730000
4655,2629.810000
4656,2624.110000
4657,2617.120000
4658,2625.350000
4659,2635.520000
4660,2606.150000
4661,2635.610000
4662,2651.230000
4663,2635.530000
4664,2642.790000
4665,2639.090000
4666,2636.930000
4667,2619.000000
4668,2640.970000
4669,2640.900000
4670,2624.700000
4671,2650.120000
4672,2648.050000
4673,2643.790000
4674,2652.540000
4675,2631.490000
4676,2651.730000
4677,2649.360000
4678,2640.880000
4679,2651.960000
4680,2650.160000
4681,2635.660000
4682,2651.980000
4683,2665.020000
4684,2641.620000
4685,2661.550000
4686,2663.220000
4687,2654.130000
4688,2671.510000
4689,2659.660000
4690,2651.050000
4691,2666.410000
4692,2666.630000
4693,2667.470000
4694,2645.600000
4695,2668.050000
4696,2679.020000
4697,2649.920000
4698,2864.350000
4699,2705.940000
4700,2689.760000
4701,2754.560000
4702,2699.990000
4703,2777.470000
4704,2677.920000
4705,2683.650000
4706,2680.470000
4707,2691.200000
4708,2664.780000
4709,2684.420000
4710,2687.640000
4711,2664.430000
4712,2693.620000
4713,2685.570000
4714,2688.570000
4715,2680.640000
4716,2694.580000
4717,2672.130000
4718,2702.780000
4719,2723.190000
4720,2702.530000
4721,2700.940000
4722,2703.390000
4723,2700.670000
4724,2702.260000
4725,2722.590000
4726,2702.170000
4727,2710.650000
4728,2713.670000
4729,2726.300000
4730,2720.670000
4731,2722.440000
4732,2717.390000
4733,2709.180000
4734,2712.650000
4735,2727.000000
4736,2722.390000
4737,2720.940000
4738,2716.980000
4739,2722.140000
4740,2720.050000
4741,2705.370000
4742,2719.310000
4743,2724.950000
4744,2724.990000
4745,2728.250000
4746,2723.320000
4747,2732.010000
4748,2732.690000
4749,2729.310000
4750,2715.960000
4751,2734.320000
4752,2718.470000
4753,2727.750000
4754,2735.170000
4755,2707.280000
4756,2736.510000
4757,2721.010000
4758,2739.870000
4759,2725.010000
4760,2737.990000
4761,2722.540000
4762,2743.730000
4763,2727.000000
4764,2750.660000
4765,2754.140000
4766,2728.420000
4767,2747.150000
4768,2757.480000
4769,2745.320000
4770,2753.810000
4771,2767.670000
4772,2794.880000
4773,2766.260000
4774,2757.140000
4775,2758.530000
4776,2757.270000
4777,2760.590000
4778,2760.920000
4779,2763.690000
4780,2765.100000
4781,2763.280000
4782,2769.550000
4783,2751.950000
4784,2766.920000
4785,2768.000000
4786,2756.900000
4787,2777.210000
4788,2768.040000
4789,2753.550000
4790,2771.000000
4791,2776.050000
4792,2775.970000
4793,2779.480000
4794,2783.720000
4795,2766.490000
4796,2787.540000
4797,2780.660000
4798,2767.780000
4799,2786.000000
4800,2793.440000
4801,2772.940000
4802,2789.270000
4803,2797.130000
4804,2782.030000
4805,2786.630000
4806,2809.860000
4807,2802.740000
4808,2804.630000
4809,2803.500000
4810,2784.460000
4811,2796.930000
4812,2801.040000
4813,2779.570000
4814,2806.600000
4815,2803.650000
4816,2789.130000
4817,2809.620000
4818,2803.900000
4819,2797.110000
4820,2808.320000
4821,2826.150000
4822,2823.830000
4823,2817.560000
4824,2823.520000
4825,2812.880000
4826,2807.280000
4827,2819.280000
4828,2814.540000
4829,2822.910000
4830,2824.660000
4831,2819.950000
4832,2814.380000
4833,2831.200000
4834,2809.130000
4835,2832.020000
4836,2833.910000
4837,2833.830000
4838,2840.130000
4839,2812.820000
4840,2839.650000
4841,2859.130000
4842,2837.360000
4843,2852.580000
4844,2838.470000
4845,2847.200000
4846,2846.020000
4847,2832.600000
4848,2837.140000
4849,2845.560000
4850,2835.970000
4851,2847.890000
4852,2854.870000
4853,2830.390000
4854,2850.920000
4855,2837.100000
4856,2855.010000
4857,2857.790000
4858,2836.850000
4859,2860.090000
4860,2862.550000
4861,2837.510000
4862,2868.440000
4863,2859.680000
4864,2868.870000
4865,2845.780000
4866,2867.210000
4867,2853.390000
4868,2864.370000
4869,2873.580000
4870,2846.270000
4871,2879.510000
4872,2874.490000
4873,2875.770000
4874,2874.040000
4875,2871.230000
4876,2883.300000
4877,2877.590000
4878,2881.380000
4879,2882.420000
4880,2859.590000
4881,2885.050000
4882,2877.300000
4883,2880.610000
4884,2888.400000
4885,2868.220000
4886,2897.250000
4887,2893.920000
4888,2893.800000
4889,2892.130000
4890,2883.680000
4891,2892.580000
4892,2897.100000
4893,2879.460000
4894,2898.150000
4895,2900.830000
4896,2905.250000
4897,2900.520000
4898,2889.480000
4899,2912.370000
4900,2909.010000
4901,2905.750000
4902,2893.500000
4903,2914.220000
4904,2890.060000
4905,2922.530000
4906,2930.660000
4907,2914.600000
4908,2925.000000
4909,2943.510000
4910,2941.130000
4911,2920.600000
4912,2917.510000
4913,2923.680000
4914,2932.420000
4915,2917.410000
4916,2925.990000
4917,2927.030000
4918,2924.690000
4919,2914.080000
4920,2920.220000
4921,2921.970000
4922,2910.320000
4923,2941.900000
4924,2916.380000
4925,2937.890000
4926,2942.170000
4927,2938.020000
4928,2940.440000
4929,2942.970000
4930,2939.590000
4931,2944.140000
4932,2942.530000
4933,2956.800000
4934,2960.820000
4935,2990.540000
4936,2956.740000
4937,2952.100000
4938,2958.150000
4939,2953.060000
4940,2960.760000
4941,2958.830000
4942,2950.140000
4943,2972.700000
4944,2956.340000
4945,2949.550000
4946,2962.390000
4947,2974.890000
4948,2968.630000
4949,2959.840000
4950,2950.120000
4951,2968.890000
4952,2942.000000
4953,2969.480000
4954,2946.740000
4955,2976.390000
4956,2957.910000
4957,2969.570000
4958,2959.150000
4959,2977.760000
4960,2956.860000
4961,2978.870000
4962,2952.110000
4963,2968.280000
4964,2984.180000
4965,2959.310000
4966,2991.720000
4967,2957.380000
4968,2990.380000
4969,2972.210000
4970,2985.270000
4971,2972.860000
4972,2990.020000
4973,2988.750000
4974,3004.520000
4975,3001.530000
4976,2997.070000
4977,3008.250000
4978,3010.120000
4979,3026.870000
4980,3009.110000
4981,2998.060000
4982,3003.310000
4983,3001.300000
4984,3008.450000
4985,2988.260000
4986,3011.560000
4987,3013.040000
4988,3010.890000
4989,3004.170000
4990,3010.800000
4991,3023.440000
4992,3019.970000
4993,3018.700000
4994,3016.140000
4995,3005.460000
4996,3023.850000
4997,3011.280000
4998,3020.730000
4999,3025.930000
5000,3009.310000
