Dimension: array length (n),Time (clock)
0,0.160000
1,0.140000
2,0.160000
3,0.200000
4,0.180000
5,0.200000
6,0.200000
7,0.200000
8,0.170000
9,0.200000
10,0.220000
11,0.270000
12,0.200000
13,0.260000
14,0.260000
15,0.240000
16,0.300000
17,0.330000
18,0.310000
19,0.330000
20,0.340000
21,0.370000
22,0.340000
23,0.380000
24,0.370000
25,0.370000
26,0.460000
27,0.430000
28,0.410000
29,0.570000
30,0.490000
31,0.500000
32,0.530000
33,0.550000
34,0.530000
35,0.560000
36,0.580000
37,0.620000
38,0.620000
39,0.610000
40,0.660000
41,0.660000
42,0.660000
43,0.720000
44,0.710000
45,0.770000
46,0.780000
47,0.720000
48,0.770000
49,0.760000
50,0.840000
51,0.840000
52,0.840000
53,0.870000
54,0.890000
55,0.920000
56,0.970000
57,0.960000
58,0.970000
59,1.010000
60,1.000000
61,1.030000
62,1.060000
63,1.090000
64,1.120000
65,1.180000
66,1.140000
67,1.210000
68,1.240000
69,1.180000
70,1.160000
71,1.270000
72,1.340000
73,1.320000
74,1.340000
75,1.410000
76,1.440000
77,1.460000
78,1.460000
79,1.490000
80,1.520000
81,1.560000
82,1.560000
83,1.610000
84,1.630000
85,1.660000
86,1.750000
87,1.760000
88,1.720000
89,1.800000
90,1.830000
91,1.840000
92,1.840000
93,1.880000
94,1.900000
95,1.930000
96,1.950000
97,1.960000
98,2.010000
99,2.050000
100,2.120000
101,2.150000
102,2.160000
103,2.190000
104,2.280000
105,2.250000
106,2.250000
107,2.220000
108,2.460000
109,2.470000
110,2.400000
111,2.470000
112,2.480000
113,2.510000
114,2.610000
115,2.630000
116,2.650000
117,2.680000
118,2.710000
119,2.710000
120,2.730000
121,2.750000
122,2.850000
123,2.930000
124,2.940000
125,2.940000
126,3.030000
127,3.150000
128,3.100000
129,3.050000
130,3.240000
131,3.180000
132,3.260000
133,3.260000
134,3.300000
135,3.320000
136,3.410000
137,3.450000
138,3.480000
139,3.520000
140,3.550000
141,3.630000
142,3.640000
143,3.700000
144,3.670000
145,3.770000
146,3.770000
147,3.870000
148,3.930000
149,3.890000
150,4.010000
151,4.050000
152,4.100000
153,4.200000
154,4.210000
155,4.190000
156,4.290000
157,4.310000
158,4.330000
159,4.320000
160,4.350000
161,4.500000
162,4.550000
163,4.520000
164,4.600000
165,4.530000
166,4.750000
167,4.800000
168,4.720000
169,4.910000
170,4.910000
171,5.030000
172,4.990000
173,5.020000
174,5.120000
175,5.130000
176,5.220000
177,5.240000
178,5.370000
179,5.300000
180,5.360000
181,5.580000
182,5.500000
183,5.610000
184,5.490000
185,5.610000
186,5.720000
187,5.840000
188,5.770000
189,5.950000
190,6.030000
191,6.010000
192,6.020000
193,6.140000
194,6.120000
195,6.300000
196,6.340000
197,6.310000
198,6.740000
199,6.390000
200,6.440000
201,6.570000
202,6.650000
203,6.700000
204,6.750000
205,6.760000
206,6.780000
207,6.880000
208,6.970000
209,6.990000
210,7.050000
211,7.180000
212,7.210000
213,7.250000
214,7.300000
215,7.390000
216,7.420000
217,7.440000
218,7.780000
219,7.780000
220,7.620000
221,7.710000
222,7.770000
223,7.870000
224,7.860000
225,8.010000
226,8.030000
227,8.130000
228,8.180000
229,8.280000
230,8.330000
231,8.340000
232,8.450000
233,8.510000
234,8.600000
235,8.650000
236,8.530000
237,8.740000
238,8.810000
239,8.810000
240,8.960000
241,9.040000
242,9.050000
243,9.030000
244,9.310000
245,9.340000
246,9.260000
247,9.490000
248,9.570000
249,9.580000
250,9.610000
251,9.570000
252,9.880000
253,9.860000
254,9.880000
255,9.970000
256,10.130000
257,10.000000
258,10.260000
259,10.170000
260,10.270000
261,10.460000
262,10.420000
263,10.520000
264,10.580000
265,10.680000
266,10.750000
267,10.720000
268,10.800000
269,10.930000
270,10.970000
271,11.000000
272,11.190000
273,11.270000
274,11.410000
275,11.370000
276,11.430000
277,11.590000
278,11.610000
279,11.690000
280,11.810000
281,11.910000
282,11.960000
283,11.940000
284,12.020000
285,12.210000
286,12.210000
287,12.310000
288,12.340000
289,12.440000
290,12.500000
291,12.530000
292,12.670000
293,12.770000
294,12.810000
295,12.950000
296,13.150000
297,13.090000
298,13.180000
299,13.250000
300,13.340000
301,13.400000
302,13.520000
303,13.610000
304,13.580000
305,13.740000
306,13.770000
307,13.930000
308,13.940000
309,14.030000
310,14.230000
311,14.220000
312,14.350000
313,14.480000
314,14.560000
315,14.540000
316,14.600000
317,14.810000
318,14.850000
319,14.860000
320,15.020000
321,15.110000
322,15.070000
323,15.270000
324,15.410000
325,15.480000
326,15.560000
327,15.570000
328,15.600000
329,15.800000
330,15.790000
331,15.890000
332,16.010000
333,16.170000
334,16.250000
335,16.160000
336,16.280000
337,16.640000
338,16.550000
339,16.640000
340,16.640000
341,16.830000
342,16.820000
343,16.990000
344,17.110000
345,17.280000
346,17.280000
347,17.500000
348,17.490000
349,17.680000
350,17.700000
351,17.830000
352,17.820000
353,17.970000
354,18.100000
355,18.130000
356,18.300000
357,18.280000
358,18.310000
359,18.460000
360,18.530000
361,18.600000
362,18.720000
363,18.860000
364,19.000000
365,19.040000
366,19.070000
367,19.430000
368,19.440000
369,19.430000
370,19.440000
371,19.820000
372,19.730000
373,19.820000
374,20.020000
375,20.050000
376,20.190000
377,20.190000
378,20.490000
379,20.490000
380,20.590000
381,20.650000
382,20.680000
383,20.950000
384,20.960000
385,21.120000
386,21.140000
387,21.240000
388,21.250000
389,21.460000
390,21.700000
391,21.580000
392,21.820000
393,21.870000
394,21.930000
395,21.990000
396,22.290000
397,22.200000
398,22.290000
399,22.720000
400,22.680000
401,22.740000
402,22.830000
403,22.850000
404,23.080000
405,23.070000
406,23.710000
407,23.450000
408,23.450000
409,23.490000
410,23.800000
411,23.740000
412,23.910000
413,23.840000
414,24.140000
415,24.260000
416,24.270000
417,24.450000
418,24.570000
419,24.580000
420,24.800000
421,24.800000
422,25.120000
423,25.170000
424,25.260000
425,25.310000
426,25.380000
427,25.440000
428,25.550000
429,25.640000
430,25.780000
431,25.920000
432,25.890000
433,26.180000
434,26.340000
435,26.350000
436,26.480000
437,26.730000
438,26.620000
439,26.850000
440,27.320000
441,27.180000
442,27.190000
443,27.320000
444,27.500000
445,27.550000
446,27.650000
447,28.040000
448,28.010000
449,28.000000
450,28.220000
451,28.530000
452,28.200000
453,28.480000
454,28.690000
455,28.670000
456,28.910000
457,28.990000
458,29.050000
459,29.210000
460,29.340000
461,29.640000
462,29.670000
463,29.650000
464,29.860000
465,29.900000
466,30.220000
467,30.360000
468,30.310000
469,30.360000
470,30.690000
471,30.820000
472,30.920000
473,30.830000
474,31.080000
475,31.110000
476,31.460000
477,31.330000
478,31.580000
479,31.800000
480,31.770000
481,31.920000
482,31.940000
483,32.180000
484,32.150000
485,32.280000
486,32.640000
487,32.450000
488,32.920000
489,32.800000
490,33.130000
491,33.190000
492,33.300000
493,33.420000
494,33.540000
495,33.760000
496,34.050000
497,34.010000
498,34.050000
499,34.220000
500,34.210000
501,34.320000
502,34.630000
503,34.660000
504,34.690000
505,34.830000
506,35.100000
507,35.230000
508,35.360000
509,35.300000
510,35.690000
511,35.760000
512,35.920000
513,35.970000
514,36.160000
515,36.340000
516,36.530000
517,36.440000
518,36.890000
519,36.640000
520,36.780000
521,37.460000
522,37.430000
523,37.260000
524,37.490000
525,37.710000
526,37.910000
527,38.170000
528,37.910000
529,38.080000
530,38.100000
531,38.610000
532,38.480000
533,38.740000
534,38.960000
535,39.110000
536,38.960000
537,39.240000
538,39.380000
539,39.490000
540,39.670000
541,39.830000
542,40.070000
543,40.090000
544,40.290000
545,40.410000
546,40.340000
547,40.760000
548,40.550000
549,40.970000
550,40.990000
551,41.090000
552,41.210000
553,41.420000
554,41.730000
555,41.760000
556,42.030000
557,41.980000
558,42.060000
559,42.350000
560,42.440000
561,42.730000
562,42.840000
563,42.890000
564,43.040000
565,43.560000
566,43.490000
567,43.510000
568,43.720000
569,43.870000
570,44.130000
571,44.030000
572,44.140000
573,44.380000
574,44.570000
575,44.730000
576,44.790000
577,45.090000
578,45.270000
579,45.170000
580,45.460000
581,45.580000
582,45.610000
583,45.870000
584,45.950000
585,46.560000
586,46.210000
587,46.580000
588,46.600000
589,46.690000
590,47.190000
591,47.120000
592,47.410000
593,47.370000
594,47.610000
595,47.750000
596,47.840000
597,47.860000
598,48.180000
599,48.290000
600,48.460000
601,48.620000
602,48.670000
603,49.130000
604,49.310000
605,49.240000
606,49.410000
607,49.440000
608,49.650000
609,49.790000
610,49.800000
611,50.400000
612,50.200000
613,50.550000
614,50.490000
615,51.090000
616,50.850000
617,51.210000
618,51.210000
619,51.400000
620,51.820000
621,52.100000
622,51.990000
623,52.040000
624,52.220000
625,52.510000
626,52.560000
627,52.870000
628,52.820000
629,53.110000
630,53.410000
631,53.340000
632,53.530000
633,53.540000
634,53.910000
635,53.980000
636,54.090000
637,54.440000
638,54.870000
639,54.680000
640,54.890000
641,54.840000
642,55.290000
643,55.000000
644,55.610000
645,55.740000
646,55.760000
647,56.010000
648,56.130000
649,56.360000
650,56.280000
651,56.590000
652,56.860000
653,56.890000
654,57.440000
655,57.170000
656,57.480000
657,57.420000
658,57.860000
659,57.940000
660,58.120000
661,58.230000
662,58.490000
663,58.840000
664,59.000000
665,58.850000
666,59.350000
667,59.320000
668,59.560000
669,59.560000
670,60.260000
671,60.270000
672,60.140000
673,60.230000
674,60.210000
675,60.610000
676,60.570000
677,61.260000
678,61.230000
679,61.500000
680,61.860000
681,61.590000
682,61.780000
683,62.110000
684,62.780000
685,62.690000
686,62.830000
687,62.700000
688,62.750000
689,63.090000
690,63.340000
691,63.430000
692,63.660000
693,63.870000
694,63.930000
695,64.630000
696,64.440000
697,64.510000
698,64.780000
699,65.230000
700,65.110000
701,65.120000
702,65.430000
703,65.680000
704,65.800000
705,65.790000
706,66.150000
707,66.420000
708,66.560000
709,66.850000
710,66.780000
711,66.950000
712,67.540000
713,67.660000
714,67.690000
715,67.960000
716,67.760000
717,68.130000
718,68.030000
719,68.380000
720,68.810000
721,68.710000
722,68.820000
723,69.260000
724,69.560000
725,69.540000
726,69.910000
727,70.040000
728,70.090000
729,70.150000
730,70.570000
731,70.690000
732,71.170000
733,71.170000
734,71.260000
735,71.080000
736,71.550000
737,71.620000
738,71.970000
739,72.350000
740,72.450000
741,72.730000
742,72.510000
743,72.610000
744,73.150000
745,73.150000
746,73.910000
747,73.680000
748,73.980000
749,73.960000
750,74.210000
751,74.870000
752,74.500000
753,74.740000
754,75.160000
755,75.040000
756,75.360000
757,75.520000
758,75.660000
759,75.720000
760,76.340000
761,76.210000
762,76.820000
763,76.860000
764,76.940000
765,77.090000
766,77.420000
767,77.620000
768,77.440000
769,77.800000
770,78.070000
771,78.650000
772,78.580000
773,78.920000
774,79.050000
775,79.590000
776,79.510000
777,79.690000
778,79.970000
779,79.700000
780,80.250000
781,80.290000
782,80.690000
783,80.800000
784,80.830000
785,81.240000
786,81.330000
787,81.600000
788,81.710000
789,82.040000
790,82.010000
791,82.140000
792,82.640000
793,82.810000
794,82.840000
795,83.150000
796,85.080000
797,83.790000
798,83.830000
799,84.110000
800,83.790000
801,84.190000
802,84.490000
803,84.910000
804,85.060000
805,85.190000
806,85.060000
807,85.650000
808,85.350000
809,85.910000
810,86.120000
811,86.510000
812,86.570000
813,86.720000
814,86.790000
815,87.360000
816,87.330000
817,87.600000
818,87.530000
819,88.230000
820,88.640000
821,88.210000
822,88.700000
823,88.710000
824,89.040000
825,89.040000
826,89.600000
827,89.740000
828,89.830000
829,90.310000
830,90.470000
831,90.660000
832,90.840000
833,90.610000
834,91.440000
835,91.490000
836,91.510000
837,91.930000
838,91.760000
839,92.260000
840,92.550000
841,92.590000
842,92.520000
843,93.100000
844,93.300000
845,93.540000
846,93.260000
847,93.930000
848,94.410000
849,94.320000
850,94.800000
851,94.960000
852,95.300000
853,95.000000
854,95.600000
855,96.030000
856,96.090000
857,95.760000
858,96.760000
859,96.380000
860,96.670000
861,96.920000
862,97.000000
863,97.460000
864,97.550000
865,97.990000
866,98.370000
867,98.540000
868,98.580000
869,98.940000
870,99.060000
871,99.520000
872,99.480000
873,99.180000
874,100.110000
875,100.070000
876,100.250000
877,100.300000
878,100.950000
879,100.930000
880,101.800000
881,101.200000
882,101.470000
883,102.050000
884,102.320000
885,102.130000
886,102.670000
887,102.780000
888,103.150000
889,103.080000
890,103.070000
891,103.790000
892,103.720000
893,104.200000
894,104.590000
895,104.640000
896,105.190000
897,105.240000
898,104.690000
899,106.080000
900,105.530000
901,105.690000
902,106.310000
903,106.150000
904,106.840000
905,107.110000
906,106.640000
907,107.360000
908,107.200000
909,108.450000
910,108.600000
911,108.100000
912,108.030000
913,108.500000
914,109.020000
915,109.010000
916,108.980000
917,109.570000
918,109.680000
919,110.150000
920,110.060000
921,110.970000
922,111.180000
923,110.840000
924,111.090000
925,111.360000
926,111.550000
927,111.660000
928,112.280000
929,112.480000
930,112.670000
931,113.410000
932,112.750000
933,113.330000
934,113.650000
935,113.910000
936,114.030000
937,114.430000
938,114.310000
939,115.030000
940,115.130000
941,114.980000
942,115.610000
943,115.990000
944,115.710000
945,116.320000
946,116.390000
947,117.300000
948,117.240000
949,117.360000
950,116.970000
951,117.670000
952,117.340000
953,118.380000
954,117.730000
955,119.100000
956,118.820000
957,118.790000
958,119.160000
959,119.660000
960,119.410000
961,119.840000
962,120.060000
963,121.210000
964,120.380000
965,120.720000
966,120.780000
967,121.500000
968,121.260000
969,121.190000
970,122.570000
971,122.470000
972,122.920000
973,123.080000
974,122.790000
975,123.460000
976,123.760000
977,123.580000
978,124.150000
979,124.670000
980,124.210000
981,124.830000
982,125.060000
983,125.060000
984,125.640000
985,125.690000
986,126.640000
987,126.160000
988,126.700000
989,127.430000
990,126.670000
991,127.080000
992,127.450000
993,128.000000
994,128.400000
995,128.030000
996,128.610000
997,129.090000
998,129.330000
999,129.620000
1000,129.790000
1001,130.070000
1002,130.540000
1003,130.480000
1004,130.500000
1005,130.940000
1006,131.080000
1007,131.250000
1008,131.980000
1009,132.000000
1010,132.210000
1011,132.340000
1012,132.700000
1013,132.920000
1014,133.130000
1015,133.570000
1016,133.520000
1017,134.010000
1018,133.960000
1019,134.100000
1020,134.480000
1021,134.610000
1022,135.680000
1023,135.310000
1024,135.470000
1025,136.070000
1026,136.140000
1027,136.770000
1028,136.870000
1029,137.230000
1030,137.290000
1031,137.500000
1032,137.660000
1033,138.040000
1034,138.140000
1035,138.460000
1036,139.350000
1037,138.880000
1038,139.580000
1039,139.690000
1040,139.890000
1041,139.780000
1042,139.930000
1043,140.690000
1044,140.980000
1045,141.410000
1046,141.320000
1047,141.370000
1048,142.120000
1049,143.090000
1050,142.220000
1051,142.540000
1052,143.360000
1053,143.310000
1054,143.400000
1055,143.060000
1056,144.120000
1057,143.930000
1058,144.330000
1059,144.980000
1060,145.490000
1061,145.730000
1062,145.880000
1063,145.660000
1064,146.250000
1065,146.410000
1066,146.850000
1067,146.620000
1068,147.460000
1069,147.250000
1070,147.530000
1071,148.350000
1072,148.710000
1073,148.800000
1074,148.990000
1075,149.490000
1076,149.230000
1077,149.390000
1078,149.980000
1079,150.770000
1080,150.940000
1081,150.530000
1082,151.340000
1083,151.700000
1084,151.800000
1085,152.450000
1086,151.960000
1087,152.720000
1088,153.250000
1089,152.520000
1090,152.860000
1091,153.570000
1092,153.590000
1093,153.680000
1094,154.340000
1095,154.350000
1096,154.350000
1097,155.210000
1098,155.630000
1099,155.670000
1100,156.470000
1101,156.120000
1102,156.280000
1103,156.690000
1104,157.910000
1105,156.890000
1106,157.290000
1107,158.300000
1108,158.070000
1109,158.550000
1110,158.920000
1111,159.180000
1112,159.460000
1113,160.000000
1114,160.090000
1115,159.990000
1116,160.320000
1117,160.280000
1118,161.460000
1119,161.550000
1120,161.080000
1121,161.500000
1122,162.090000
1123,162.620000
1124,162.770000
1125,162.850000
1126,163.380000
1127,163.220000
1128,164.090000
1129,163.220000
1130,164.950000
1131,164.220000
1132,164.920000
1133,164.790000
1134,165.770000
1135,165.870000
1136,166.700000
1137,166.500000
1138,166.640000
1139,166.700000
1140,166.880000
1141,167.470000
1142,167.340000
1143,168.030000
1144,168.460000
1145,168.780000
1146,168.820000
1147,169.720000
1148,170.000000
1149,169.750000
1150,169.810000
1151,170.450000
1152,170.240000
1153,171.230000
1154,170.880000
1155,170.830000
1156,171.820000
1157,172.300000
1158,172.300000
1159,173.040000
1160,173.540000
1161,172.960000
1162,173.540000
1163,174.240000
1164,174.020000
1165,173.690000
1166,174.770000
1167,175.250000
1168,175.520000
1169,175.740000
1170,176.470000
1171,176.150000
1172,176.690000
1173,176.600000
1174,176.660000
1175,176.990000
1176,177.480000
1177,178.200000
1178,177.770000
1179,177.970000
1180,179.080000
1181,179.130000
1182,179.560000
1183,179.580000
1184,179.760000
1185,179.880000
1186,180.390000
1187,180.390000
1188,181.310000
1189,181.320000
1190,182.050000
1191,183.060000
1192,182.290000
1193,182.900000
1194,182.740000
1195,183.040000
1196,184.030000
1197,184.410000
1198,183.910000
1199,184.160000
1200,184.430000
1201,186.060000
1202,185.550000
1203,185.410000
1204,185.810000
1205,186.880000
1206,186.920000
1207,187.030000
1208,187.600000
1209,187.630000
1210,187.590000
1211,188.360000
1212,188.310000
1213,188.920000
1214,188.950000
1215,189.410000
1216,190.920000
1217,189.550000
1218,190.440000
1219,190.890000
1220,190.550000
1221,191.410000
1222,191.740000
1223,191.460000
1224,192.110000
1225,192.930000
1226,192.640000
1227,193.170000
1228,193.440000
1229,193.170000
1230,194.520000
1231,194.110000
1232,194.670000
1233,194.810000
1234,194.750000
1235,195.860000
1236,195.850000
1237,196.260000
1238,196.100000
1239,196.870000
1240,197.360000
1241,197.550000
1242,197.630000
1243,198.190000
1244,198.610000
1245,198.370000
1246,199.300000
1247,199.610000
1248,199.870000
1249,200.120000
1250,199.880000
1251,200.510000
1252,200.620000
1253,200.670000
1254,201.470000
1255,201.990000
1256,201.810000
1257,202.130000
1258,203.180000
1259,202.550000
1260,203.380000
1261,204.280000
1262,204.460000
1263,203.790000
1264,204.590000
1265,205.500000
1266,206.060000
1267,205.520000
1268,206.390000
1269,205.960000
1270,206.470000
1271,207.090000
1272,206.390000
1273,207.010000
1274,208.030000
1275,207.350000
1276,208.640000
1277,208.080000
1278,208.990000
1279,209.080000
1280,210.200000
1281,209.450000
1282,209.890000
1283,210.830000
1284,210.770000
1285,211.480000
1286,212.120000
1287,211.820000
1288,212.810000
1289,212.600000
1290,212.770000
1291,213.660000
1292,213.430000
1293,213.910000
1294,213.750000
1295,214.660000
1296,215.080000
1297,215.190000
1298,214.960000
1299,215.640000
1300,215.470000
1301,216.390000
1302,217.220000
1303,217.270000
1304,217.860000
1305,217.420000
1306,218.640000
1307,217.630000
1308,219.750000
1309,219.140000
1310,219.340000
1311,218.750000
1312,219.560000
1313,220.820000
1314,220.360000
1315,220.300000
1316,221.610000
1317,221.580000
1318,222.080000
1319,222.080000
1320,223.090000
1321,223.530000
1322,223.220000
1323,224.350000
1324,223.810000
1325,224.390000
1326,224.520000
1327,225.040000
1328,224.390000
1329,225.150000
1330,225.840000
1331,226.380000
1332,226.520000
1333,227.120000
1334,227.650000
1335,226.880000
1336,227.830000
1337,228.030000
1338,228.390000
1339,229.140000
1340,229.440000
1341,231.040000
1342,229.350000
1343,230.400000
1344,230.320000
1345,230.820000
1346,231.360000
1347,232.330000
1348,232.720000
1349,232.440000
1350,233.260000
1351,232.470000
1352,233.650000
1353,233.930000
1354,234.720000
1355,234.620000
1356,234.690000
1357,234.820000
1358,235.760000
1359,235.400000
1360,236.090000
1361,237.150000
1362,236.230000
1363,236.240000
1364,237.690000
1365,238.110000
1366,236.810000
1367,238.550000
1368,238.420000
1369,241.210000
1370,238.980000
1371,240.080000
1372,240.500000
1373,240.540000
1374,240.700000
1375,241.160000
1376,241.380000
1377,242.150000
1378,242.730000
1379,241.460000
1380,242.470000
1381,243.250000
1382,243.590000
1383,243.310000
1384,244.250000
1385,245.370000
1386,244.940000
1387,244.240000
1388,245.950000
1389,246.420000
1390,246.720000
1391,246.900000
1392,246.450000
1393,247.900000
1394,248.070000
1395,248.170000
1396,248.360000
1397,248.420000
1398,249.560000
1399,249.530000
1400,249.420000
1401,250.210000
1402,250.410000
1403,251.490000
1404,251.480000
1405,251.630000
1406,251.440000
1407,252.450000
1408,253.800000
1409,253.530000
1410,253.420000
1411,253.570000
1412,254.060000
1413,255.150000
1414,255.810000
1415,256.690000
1416,255.900000
1417,254.940000
1418,256.450000
1419,257.230000
1420,256.160000
1421,257.160000
1422,257.070000
1423,258.140000
1424,258.130000
1425,258.640000
1426,258.990000
1427,258.990000
1428,260.930000
1429,259.920000
1430,260.540000
1431,261.030000
1432,261.420000
1433,261.490000
1434,262.010000
1435,262.090000
1436,263.150000
1437,263.240000
1438,263.780000
1439,263.510000
1440,263.770000
1441,264.070000
1442,264.530000
1443,264.940000
1444,265.330000
1445,265.990000
1446,265.890000
1447,266.840000
1448,266.280000
1449,267.170000
1450,267.810000
1451,267.590000
1452,267.970000
1453,268.520000
1454,268.540000
1455,268.670000
1456,269.980000
1457,270.450000
1458,270.420000
1459,271.020000
1460,272.300000
1461,286.660000
1462,270.840000
1463,272.050000
1464,273.610000
1465,273.160000
1466,274.250000
1467,280.970000
1468,274.540000
1469,273.610000
1470,274.890000
1471,275.290000
1472,276.300000
1473,276.000000
1474,276.560000
1475,277.800000
1476,277.260000
1477,276.970000
1478,278.070000
1479,278.450000
1480,278.760000
1481,279.100000
1482,279.890000
1483,280.070000
1484,280.040000
1485,279.380000
1486,281.790000
1487,280.500000
1488,281.680000
1489,281.930000
1490,282.390000
1491,282.890000
1492,284.250000
1493,282.700000
1494,283.590000
1495,284.640000
1496,284.690000
1497,284.660000
1498,286.200000
1499,285.760000
1500,286.150000
1501,286.680000
1502,286.830000
1503,287.100000
1504,287.720000
1505,288.190000
1506,289.120000
1507,288.450000
1508,288.410000
1509,290.210000
1510,289.760000
1511,289.850000
1512,290.060000
1513,290.850000
1514,291.150000
1515,290.640000
1516,291.290000
1517,292.230000
1518,291.790000
1519,292.890000
1520,292.780000
1521,293.650000
1522,293.460000
1523,294.760000
1524,295.140000
1525,295.260000
1526,295.790000
1527,295.450000
1528,296.150000
1529,297.410000
1530,296.990000
1531,299.030000
1532,298.070000
1533,297.820000
1534,298.620000
1535,298.990000
1536,299.650000
1537,300.000000
1538,300.770000
1539,300.570000
1540,301.040000
1541,301.380000
1542,303.430000
1543,302.850000
1544,303.260000
1545,303.580000
1546,303.430000
1547,303.600000
1548,304.020000
1549,304.060000
1550,304.820000
1551,305.700000
1552,305.950000
1553,306.410000
1554,306.560000
1555,306.630000
1556,307.130000
1557,307.870000
1558,308.830000
1559,307.830000
1560,307.950000
1561,309.090000
1562,309.340000
1563,310.370000
1564,309.900000
1565,310.750000
1566,311.620000
1567,311.650000
1568,312.310000
1569,312.030000
1570,313.260000
1571,313.490000
1572,312.500000
1573,314.280000
1574,314.080000
1575,314.870000
1576,315.540000
1577,315.870000
1578,315.970000
1579,316.470000
1580,316.420000
1581,317.100000
1582,317.550000
1583,318.320000
1584,318.420000
1585,318.390000
1586,319.570000
1587,319.550000
1588,318.650000
1589,320.150000
1590,321.310000
1591,321.160000
1592,320.730000
1593,323.050000
1594,321.590000
1595,322.150000
1596,323.070000
1597,322.990000
1598,323.850000
1599,324.150000
1600,325.070000
1601,325.620000
1602,324.760000
1603,326.980000
1604,325.770000
1605,326.460000
1606,326.140000
1607,327.290000
1608,326.770000
1609,326.990000
1610,328.380000
1611,328.990000
1612,329.420000
1613,329.500000
1614,329.980000
1615,331.780000
1616,331.520000
1617,330.790000
1618,331.700000
1619,333.350000
1620,332.810000
1621,332.740000
1622,333.940000
1623,333.870000
1624,334.750000
1625,335.150000
1626,335.470000
1627,334.880000
1628,336.310000
1629,337.190000
1630,337.240000
1631,337.500000
1632,336.650000
1633,338.230000
1634,338.490000
1635,338.750000
1636,339.640000
1637,338.970000
1638,339.720000
1639,340.390000
1640,340.720000
1641,340.600000
1642,341.750000
1643,343.020000
1644,342.180000
1645,342.530000
1646,342.480000
1647,343.440000
1648,344.380000
1649,344.880000
1650,344.840000
1651,345.740000
1652,345.030000
1653,345.480000
1654,346.380000
1655,345.440000
1656,346.670000
1657,348.100000
1658,348.750000
1659,347.730000
1660,348.450000
1661,348.580000
1662,350.510000
1663,350.820000
1664,350.570000
1665,351.620000
1666,352.190000
1667,351.170000
1668,351.890000
1669,353.080000
1670,354.320000
1671,352.640000
1672,353.470000
1673,354.560000
1674,354.840000
1675,355.390000
1676,354.250000
1677,355.310000
1678,356.790000
1679,357.340000
1680,356.630000
1681,357.610000
1682,356.630000
1683,359.340000
1684,359.730000
1685,360.810000
1686,359.860000
1687,359.930000
1688,361.340000
1689,360.750000
1690,361.270000
1691,362.040000
1692,362.530000
1693,362.770000
1694,364.490000
1695,362.770000
1696,365.740000
1697,363.380000
1698,364.740000
1699,365.350000
1700,365.730000
1701,365.580000
1702,366.930000
1703,367.380000
1704,367.150000
1705,367.660000
1706,367.950000
1707,368.270000
1708,368.490000
1709,370.330000
1710,369.670000
1711,370.210000
1712,370.200000
1713,371.630000
1714,371.140000
1715,371.730000
1716,373.080000
1717,372.760000
1718,373.780000
1719,374.350000
1720,373.650000
1721,374.480000
1722,375.830000
1723,374.960000
1724,375.460000
1725,375.740000
1726,376.090000
1727,376.680000
1728,377.560000
1729,377.760000
1730,379.630000
1731,378.710000
1732,380.780000
1733,380.410000
1734,379.940000
1735,380.380000
1736,380.520000
1737,381.870000
1738,381.580000
1739,383.410000
1740,383.070000
1741,382.880000
1742,382.940000
1743,384.530000
1744,384.670000
1745,385.010000
1746,385.420000
1747,386.260000
1748,385.800000
1749,386.880000
1750,387.630000
1751,386.750000
1752,387.670000
1753,387.840000
1754,388.990000
1755,390.460000
1756,390.300000
1757,390.930000
1758,390.010000
1759,391.050000
1760,391.500000
1761,392.000000
1762,392.390000
1763,393.590000
1764,393.330000
1765,393.920000
1766,396.020000
1767,394.690000
1768,393.760000
1769,395.470000
1770,395.590000
1771,397.410000
1772,396.630000
1773,397.090000
1774,396.680000
1775,397.210000
1776,399.150000
1777,398.720000
1778,399.510000
1779,400.390000
1780,400.150000
1781,400.140000
1782,401.930000
1783,401.000000
1784,401.960000
1785,402.110000
1786,403.270000
1787,403.610000
1788,403.720000
1789,404.590000
1790,405.010000
1791,404.890000
1792,405.390000
1793,406.830000
1794,408.360000
1795,408.580000
1796,408.150000
1797,406.790000
1798,407.800000
1799,408.430000
1800,409.350000
1801,408.920000
1802,410.730000
1803,410.660000
1804,411.290000
1805,410.160000
1806,412.040000
1807,412.770000
1808,412.960000
1809,413.260000
1810,414.080000
1811,414.100000
1812,414.550000
1813,415.960000
1814,415.610000
1815,414.890000
1816,417.800000
1817,418.010000
1818,416.920000
1819,417.250000
1820,419.100000
1821,417.350000
1822,418.110000
1823,419.150000
1824,420.980000
1825,421.000000
1826,420.090000
1827,421.100000
1828,421.980000
1829,422.210000
1830,422.910000
1831,423.450000
1832,423.380000
1833,423.730000
1834,425.400000
1835,426.240000
1836,425.440000
1837,424.780000
1838,424.890000
1839,427.340000
1840,427.140000
1841,427.260000
1842,428.590000
1843,428.030000
1844,428.640000
1845,429.830000
1846,430.330000
1847,430.410000
1848,430.760000
1849,430.670000
1850,431.600000
1851,431.810000
1852,433.560000
1853,433.980000
1854,433.470000
1855,434.220000
1856,434.280000
1857,436.040000
1858,435.300000
1859,436.890000
1860,435.460000
1861,437.170000
1862,437.330000
1863,437.710000
1864,438.450000
1865,439.470000
1866,439.140000
1867,440.320000
1868,439.970000
1869,440.420000
1870,441.520000
1871,441.490000
1872,442.540000
1873,443.190000
1874,441.880000
1875,441.500000
1876,442.800000
1877,444.010000
1878,444.120000
1879,446.120000
1880,445.210000
1881,445.490000
1882,447.440000
1883,447.840000
1884,447.180000
1885,449.430000
1886,448.770000
1887,449.530000
1888,449.510000
1889,450.530000
1890,450.100000
1891,450.980000
1892,452.010000
1893,451.750000
1894,454.550000
1895,452.910000
1896,452.180000
1897,454.790000
1898,455.860000
1899,455.460000
1900,454.630000
1901,456.240000
1902,456.160000
1903,456.240000
1904,457.210000
1905,457.070000
1906,456.640000
1907,458.320000
1908,459.590000
1909,459.900000
1910,459.930000
1911,459.480000
1912,460.150000
1913,460.740000
1914,462.020000
1915,461.670000
1916,463.080000
1917,463.170000
1918,463.130000
1919,463.310000
1920,465.050000
1921,465.250000
1922,465.560000
1923,465.030000
1924,467.680000
1925,466.290000
1926,466.550000
1927,469.190000
1928,468.030000
1929,468.620000
1930,469.380000
1931,470.130000
1932,470.310000
1933,471.190000
1934,471.200000
1935,472.680000
1936,472.450000
1937,473.130000
1938,472.740000
1939,473.240000
1940,473.100000
1941,475.800000
1942,474.590000
1943,475.790000
1944,476.520000
1945,477.400000
1946,477.330000
1947,476.650000
1948,477.990000
1949,477.390000
1950,478.590000
1951,480.580000
1952,481.390000
1953,480.350000
1954,482.020000
1955,482.050000
1956,482.260000
1957,482.030000
1958,483.110000
1959,483.230000
1960,483.640000
1961,484.320000
1962,485.830000
1963,485.810000
1964,485.830000
1965,486.720000
1966,486.820000
1967,487.880000
1968,488.610000
1969,488.760000
1970,488.070000
1971,489.540000
1972,490.020000
1973,489.910000
1974,490.490000
1975,490.320000
1976,491.950000
1977,491.740000
1978,492.390000
1979,493.590000
1980,493.670000
1981,493.590000
1982,494.040000
1983,495.500000
1984,496.170000
1985,495.630000
1986,496.630000
1987,496.650000
1988,496.820000
1989,498.940000
1990,498.710000
1991,500.130000
1992,499.950000
1993,500.610000
1994,500.040000
1995,502.670000
1996,500.590000
1997,501.200000
1998,501.960000
1999,502.470000
2000,502.990000
2001,503.020000
2002,504.950000
2003,504.730000
2004,506.100000
2005,504.470000
2006,508.100000
2007,508.090000
2008,508.680000
2009,508.300000
2010,508.480000
2011,509.310000
2012,510.760000
2013,509.890000
2014,511.830000
2015,510.950000
2016,511.230000
2017,511.560000
2018,512.750000
2019,512.210000
2020,512.900000
2021,515.150000
2022,516.230000
2023,516.220000
2024,515.140000
2025,515.400000
2026,516.070000
2027,517.120000
2028,517.940000
2029,518.930000
2030,518.820000
2031,518.810000
2032,520.030000
2033,521.140000
2034,523.120000
2035,520.520000
2036,520.380000
2037,522.320000
2038,521.680000
2039,524.000000
2040,522.970000
2041,523.860000
2042,524.320000
2043,523.780000
2044,524.370000
2045,526.150000
2046,525.470000
2047,526.630000
2048,527.550000
2049,526.350000
2050,528.330000
2051,529.820000
2052,529.990000
2053,529.950000
2054,530.520000
2055,529.040000
2056,532.720000
2057,530.990000
2058,532.810000
2059,533.970000
2060,533.600000
2061,534.560000
2062,533.640000
2063,534.800000
2064,534.550000
2065,535.750000
2066,537.580000
2067,536.790000
2068,537.670000
2069,537.220000
2070,539.250000
2071,537.880000
2072,539.270000
2073,541.050000
2074,541.560000
2075,542.530000
2076,542.660000
2077,542.930000
2078,542.940000
2079,544.020000
2080,543.590000
2081,545.090000
2082,544.510000
2083,546.500000
2084,546.500000
2085,547.330000
2086,546.990000
2087,548.380000
2088,548.700000
2089,549.070000
2090,550.060000
2091,550.250000
2092,551.100000
2093,549.850000
2094,552.130000
2095,551.630000
2096,551.590000
2097,551.860000
2098,552.150000
2099,553.550000
2100,553.130000
2101,555.200000
2102,555.570000
2103,555.460000
2104,555.350000
2105,556.950000
2106,557.190000
2107,557.230000
2108,558.240000
2109,557.540000
2110,560.440000
2111,559.510000
2112,558.110000
2113,560.930000
2114,560.930000
2115,562.030000
2116,562.050000
2117,564.460000
2118,564.580000
2119,564.650000
2120,562.290000
2121,565.040000
2122,565.370000
2123,566.140000
2124,568.210000
2125,566.460000
2126,566.920000
2127,569.860000
2128,568.390000
2129,568.660000
2130,571.120000
2131,569.980000
2132,571.540000
2133,573.700000
2134,572.530000
2135,574.360000
2136,572.850000
2137,576.230000
2138,574.370000
2139,575.830000
2140,575.880000
2141,576.440000
2142,577.010000
2143,574.830000
2144,578.530000
2145,579.010000
2146,578.680000
2147,580.190000
2148,579.980000
2149,580.650000
2150,579.400000
2151,581.670000
2152,582.930000
2153,580.870000
2154,583.660000
2155,584.760000
2156,583.400000
2157,586.810000
2158,585.560000
2159,586.350000
2160,586.310000
2161,587.160000
2162,588.560000
2163,587.980000
2164,587.630000
2165,589.330000
2166,589.030000
2167,590.460000
2168,590.730000
2169,591.540000
2170,592.160000
2171,591.520000
2172,593.770000
2173,592.320000
2174,593.240000
2175,593.780000
2176,594.760000
2177,594.360000
2178,596.220000
2179,596.250000
2180,596.410000
2181,598.080000
2182,597.740000
2183,596.410000
2184,599.540000
2185,599.830000
2186,600.650000
2187,601.310000
2188,602.100000
2189,601.620000
2190,603.140000
2191,602.450000
2192,603.100000
2193,603.920000
2194,603.360000
2195,604.710000
2196,605.840000
2197,605.280000
2198,606.990000
2199,606.640000
2200,607.060000
2201,608.930000
2202,608.880000
2203,609.360000
2204,608.930000
2205,608.830000
2206,610.220000
2207,612.730000
2208,612.380000
2209,610.920000
2210,612.330000
2211,615.760000
2212,615.130000
2213,614.200000
2214,615.920000
2215,615.870000
2216,616.410000
2217,618.200000
2218,617.510000
2219,618.130000
2220,617.170000
2221,619.170000
2222,620.290000
2223,622.240000
2224,620.780000
2225,620.070000
2226,622.690000
2227,623.970000
2228,622.210000
2229,624.570000
2230,623.420000
2231,625.220000
2232,625.230000
2233,625.080000
2234,625.550000
2235,626.930000
2236,626.920000
2237,627.610000
2238,628.460000
2239,628.870000
2240,628.780000
2241,630.170000
2242,632.600000
2243,629.700000
2244,632.390000
2245,632.260000
2246,633.090000
2247,635.140000
2248,634.320000
2249,635.980000
2250,634.930000
2251,636.190000
2252,637.490000
2253,637.630000
2254,637.590000
2255,638.250000
2256,637.590000
2257,638.190000
2258,640.280000
2259,641.180000
2260,639.590000
2261,643.570000
2262,642.740000
2263,643.470000
2264,643.880000
2265,642.670000
2266,643.930000
2267,644.020000
2268,646.670000
2269,646.880000
2270,645.620000
2271,645.860000
2272,647.870000
2273,646.400000
2274,648.360000
2275,650.330000
2276,648.410000
2277,649.980000
2278,650.240000
2279,651.490000
2280,652.740000
2281,653.460000
2282,652.670000
2283,653.960000
2284,655.470000
2285,654.750000
2286,656.480000
2287,655.460000
2288,656.920000
2289,656.590000
2290,657.120000
2291,658.440000
2292,660.470000
2293,657.430000
2294,660.180000
2295,659.450000
2296,663.550000
2297,662.320000
2298,662.880000
2299,662.610000
2300,664.330000
2301,663.750000
2302,664.410000
2303,664.160000
2304,666.550000
2305,665.930000
2306,667.200000
2307,668.580000
2308,667.020000
2309,668.620000
2310,669.560000
2311,669.480000
2312,669.820000
2313,671.530000
2314,670.520000
2315,671.590000
2316,673.540000
2317,671.980000
2318,674.820000
2319,675.130000
2320,675.450000
2321,676.250000
2322,676.260000
2323,676.800000
2324,676.030000
2325,678.090000
2326,676.790000
2327,678.410000
2328,678.420000
2329,680.470000
2330,680.710000
2331,680.400000
2332,682.600000
2333,682.700000
2334,682.930000
2335,682.720000
2336,684.330000
2337,684.320000
2338,684.820000
2339,685.160000
2340,685.740000
2341,686.630000
2342,687.870000
2343,687.660000
2344,689.640000
2345,689.440000
2346,689.540000
2347,692.380000
2348,690.780000
2349,690.910000
2350,691.140000
2351,692.870000
2352,691.520000
2353,695.170000
2354,694.440000
2355,695.100000
2356,696.540000
2357,695.430000
2358,697.630000
2359,697.580000
2360,700.130000
2361,698.060000
2362,699.310000
2363,699.520000
2364,704.650000
2365,700.270000
2366,701.920000
2367,701.860000
2368,701.280000
2369,702.710000
2370,705.220000
2371,703.850000
2372,705.340000
2373,705.430000
2374,707.650000
2375,707.000000
2376,706.920000
2377,709.230000
2378,710.480000
2379,709.820000
2380,709.430000
2381,709.590000
2382,709.970000
2383,711.220000
2384,711.720000
2385,712.800000
2386,712.200000
2387,713.950000
2388,713.730000
2389,715.120000
2390,712.750000
2391,716.350000
2392,716.750000
2393,718.580000
2394,715.260000
2395,717.810000
2396,718.440000
2397,719.500000
2398,719.130000
2399,722.680000
2400,721.500000
2401,722.230000
2402,722.440000
2403,725.660000
2404,724.530000
2405,722.820000
2406,725.440000
2407,725.840000
2408,725.990000
2409,727.730000
2410,727.670000
2411,728.930000
2412,728.640000
2413,727.890000
2414,729.100000
2415,731.710000
2416,730.560000
2417,731.270000
2418,732.150000
2419,732.240000
2420,733.620000
2421,735.120000
2422,735.760000
2423,735.810000
2424,736.050000
2425,734.580000
2426,739.010000
2427,737.490000
2428,736.790000
2429,739.240000
2430,739.010000
2431,740.240000
2432,741.310000
2433,741.230000
2434,742.320000
2435,742.460000
2436,742.290000
2437,744.390000
2438,742.800000
2439,744.030000
2440,744.630000
2441,746.270000
2442,746.090000
2443,746.680000
2444,748.060000
2445,747.700000
2446,749.580000
2447,747.980000
2448,750.370000
2449,749.830000
2450,750.000000
2451,751.460000
2452,752.740000
2453,752.140000
2454,753.340000
2455,754.840000
2456,753.850000
2457,757.140000
2458,756.640000
2459,758.250000
2460,757.020000
2461,759.350000
2462,758.920000
2463,759.300000
2464,761.510000
2465,761.430000
2466,761.200000
2467,759.140000
2468,762.980000
2469,764.060000
2470,762.050000
2471,764.090000
2472,766.590000
2473,764.670000
2474,766.900000
2475,766.040000
2476,766.630000
2477,767.790000
2478,769.910000
2479,767.760000
2480,768.480000
2481,769.380000
2482,773.170000
2483,771.530000
2484,773.630000
2485,773.410000
2486,772.930000
2487,774.570000
2488,774.180000
2489,775.680000
2490,774.810000
2491,777.730000
2492,776.630000
2493,778.350000
2494,780.320000
2495,778.500000
2496,778.940000
2497,780.870000
2498,781.370000
2499,781.430000
2500,781.510000
2501,781.560000
2502,784.510000
2503,784.190000
2504,785.500000
2505,785.780000
2506,784.860000
2507,787.980000
2508,786.570000
2509,789.550000
2510,789.280000
2511,788.880000
2512,788.470000
2513,791.330000
2514,791.750000
2515,792.510000
2516,791.920000
2517,793.220000
2518,793.320000
2519,793.550000
2520,794.180000
2521,794.260000
2522,796.670000
2523,797.680000
2524,799.000000
2525,798.490000
2526,798.330000
2527,798.840000
2528,799.790000
2529,800.330000
2530,800.020000
2531,801.070000
2532,801.470000
2533,803.070000
2534,805.300000
2535,803.440000
2536,804.450000
2537,803.610000
2538,805.230000
2539,808.480000
2540,807.060000
2541,808.180000
2542,808.510000
2543,810.200000
2544,811.280000
2545,809.930000
2546,810.610000
2547,813.940000
2548,811.970000
2549,813.650000
2550,812.550000
2551,814.000000
2552,816.010000
2553,814.360000
2554,816.450000
2555,815.420000
2556,815.440000
2557,819.540000
2558,817.670000
2559,820.000000
2560,818.460000
2561,820.000000
2562,822.770000
2563,822.190000
2564,820.660000
2565,822.450000
2566,823.900000
2567,823.970000
2568,826.020000
2569,826.710000
2570,825.740000
2571,826.760000
2572,828.010000
2573,827.850000
2574,829.320000
2575,829.580000
2576,829.950000
2577,830.330000
2578,830.490000
2579,834.100000
2580,832.120000
2581,833.040000
2582,835.930000
2583,833.390000
2584,834.880000
2585,835.690000
2586,835.380000
2587,835.390000
2588,840.460000
2589,840.750000
2590,837.870000
2591,838.050000
2592,839.200000
2593,841.640000
2594,841.290000
2595,842.490000
2596,843.200000
2597,844.490000
2598,843.950000
2599,844.820000
2600,846.130000
2601,845.900000
2602,847.690000
2603,847.460000
2604,846.930000
2605,847.960000
2606,848.200000
2607,849.860000
2608,849.060000
2609,851.910000
2610,852.420000
2611,851.740000
2612,852.860000
2613,852.740000
2614,854.600000
2615,857.010000
2616,856.440000
2617,856.470000
2618,857.170000
2619,857.090000
2620,858.750000
2621,858.880000
2622,860.540000
2623,859.950000
2624,859.510000
2625,858.830000
2626,863.510000
2627,863.050000
2628,864.070000
2629,863.120000
2630,864.970000
2631,866.650000
2632,865.130000
2633,866.980000
2634,863.880000
2635,868.960000
2636,869.050000
2637,869.380000
2638,870.520000
2639,869.990000
2640,873.170000
2641,873.130000
2642,872.450000
2643,874.130000
2644,874.370000
2645,876.280000
2646,875.450000
2647,873.710000
2648,877.640000
2649,876.500000
2650,879.740000
2651,877.300000
2652,881.650000
2653,877.320000
2654,881.160000
2655,881.840000
2656,881.710000
2657,882.320000
2658,884.500000
2659,882.940000
2660,884.660000
2661,885.100000
2662,885.390000
2663,887.190000
2664,890.630000
2665,885.970000
2666,890.770000
2667,888.320000
2668,888.280000
2669,890.280000
2670,894.470000
2671,892.540000
2672,892.770000
2673,894.440000
2674,894.180000
2675,894.950000
2676,896.570000
2677,898.170000
2678,894.590000
2679,896.270000
2680,899.540000
2681,899.030000
2682,898.030000
2683,899.600000
2684,898.840000
2685,901.650000
2686,901.120000
2687,903.170000
2688,901.210000
2689,903.500000
2690,903.930000
2691,904.940000
2692,906.940000
2693,907.960000
2694,908.550000
2695,907.010000
2696,908.290000
2697,910.160000
2698,908.400000
2699,911.230000
2700,910.300000
2701,911.760000
2702,911.920000
2703,913.080000
2704,913.640000
2705,914.750000
2706,916.310000
2707,916.090000
2708,915.790000
2709,913.520000
2710,916.590000
2711,918.320000
2712,919.090000
2713,918.970000
2714,919.740000
2715,921.850000
2716,922.750000
2717,919.990000
2718,923.150000
2719,924.070000
2720,925.720000
2721,924.460000
2722,924.790000
2723,925.130000
2724,926.830000
2725,926.120000
2726,926.190000
2727,930.360000
2728,930.860000
2729,933.040000
2730,931.170000
2731,930.960000
2732,933.370000
2733,934.420000
2734,935.300000
2735,934.100000
2736,936.650000
2737,935.010000
2738,937.270000
2739,938.010000
2740,936.350000
2741,937.810000
2742,938.350000
2743,938.080000
2744,939.510000
2745,941.180000
2746,942.270000
2747,942.720000
2748,942.780000
2749,941.430000
2750,945.930000
2751,945.160000
2752,945.600000
2753,947.280000
2754,947.730000
2755,949.790000
2756,948.270000
2757,948.820000
2758,949.800000
2759,950.280000
2760,952.490000
2761,952.900000
2762,951.200000
2763,955.090000
2764,954.650000
2765,955.740000
2766,955.680000
2767,955.150000
2768,955.750000
2769,956.570000
2770,958.380000
2771,957.600000
2772,960.740000
2773,959.300000
2774,960.540000
2775,961.970000
2776,962.210000
2777,963.510000
2778,962.690000
2779,964.930000
2780,965.360000
2781,966.470000
2782,965.960000
2783,967.290000
2784,969.680000
2785,970.260000
2786,968.930000
2787,969.000000
2788,972.590000
2789,973.030000
2790,973.650000
2791,972.110000
2792,974.670000
2793,973.850000
2794,976.090000
2795,976.710000
2796,977.090000
2797,975.840000
2798,977.710000
2799,977.820000
2800,979.460000
2801,979.680000
2802,981.770000
2803,983.160000
2804,979.850000
2805,981.200000
2806,982.910000
2807,985.200000
2808,982.070000
2809,986.910000
2810,987.270000
2811,986.680000
2812,987.010000
2813,989.560000
2814,990.610000
2815,987.040000
2816,989.620000
2817,990.050000
2818,990.840000
2819,992.910000
2820,992.230000
2821,993.540000
2822,994.000000
2823,995.830000
2824,996.150000
2825,996.880000
2826,1000.160000
2827,998.230000
2828,997.060000
2829,998.740000
2830,998.930000
2831,999.900000
2832,1000.800000
2833,1002.130000
2834,1003.000000
2835,1003.110000
2836,1004.020000
2837,1003.220000
2838,1005.000000
2839,1007.690000
2840,1007.650000
2841,1008.710000
2842,1007.810000
2843,1009.200000
2844,1010.910000
2845,1010.700000
2846,1012.300000
2847,1010.800000
2848,1012.280000
2849,1013.600000
2850,1014.440000
2851,1015.060000
2852,1015.500000
2853,1018.070000
2854,1015.020000
2855,1015.380000
2856,1017.880000
2857,1015.740000
2858,1019.120000
2859,1020.290000
2860,1021.920000
2861,1022.020000
2862,1021.240000
2863,1023.710000
2864,1022.820000
2865,1024.630000
2866,1025.020000
2867,1023.250000
2868,1027.110000
2869,1026.620000
2870,1027.070000
2871,1025.920000
2872,1030.990000
2873,1029.340000
2874,1029.480000
2875,1031.530000
2876,1031.650000
2877,1033.820000
2878,1033.990000
2879,1035.020000
2880,1035.710000
2881,1034.190000
2882,1038.240000
2883,1038.200000
2884,1035.490000
2885,1038.520000
2886,1042.460000
2887,1039.530000
2888,1038.480000
2889,1038.500000
2890,1042.260000
2891,1039.830000
2892,1043.430000
2893,1041.610000
2894,1047.390000
2895,1044.210000
2896,1045.860000
2897,1047.340000
2898,1048.520000
2899,1048.890000
2900,1049.610000
2901,1050.400000
2902,1051.440000
2903,1051.030000
2904,1051.560000
2905,1054.360000
2906,1051.380000
2907,1054.840000
2908,1056.630000
2909,1057.210000
2910,1056.790000
2911,1057.430000
2912,1058.010000
2913,1058.910000
2914,1059.420000
2915,1058.110000
2916,1061.260000
2917,1063.510000
2918,1061.120000
2919,1062.460000
2920,1065.140000
2921,1063.670000
2922,1064.440000
2923,1066.570000
2924,1065.540000
2925,1066.600000
2926,1068.310000
2927,1068.980000
2928,1071.400000
2929,1069.280000
2930,1070.560000
2931,1072.970000
2932,1071.360000
2933,1073.570000
2934,1073.470000
2935,1074.070000
2936,1073.990000
2937,1074.550000
2938,1076.990000
2939,1077.620000
2940,1078.030000
2941,1078.460000
2942,1081.460000
2943,1082.980000
2944,1083.210000
2945,1081.960000
2946,1081.290000
2947,1084.390000
2948,1082.480000
2949,1084.270000
2950,1085.730000
2951,1087.330000
2952,1087.390000
2953,1087.630000
2954,1090.250000
2955,1089.430000
2956,1090.550000
2957,1090.990000
2958,1091.980000
2959,1092.430000
2960,1092.760000
2961,1091.510000
2962,1096.220000
2963,1095.470000
2964,1097.490000
2965,1097.180000
2966,1097.150000
2967,1099.160000
2968,1097.690000
2969,1099.060000
2970,1099.760000
2971,1101.590000
2972,1102.750000
2973,1101.120000
2974,1101.130000
2975,1104.160000
2976,1104.350000
2977,1107.300000
2978,1102.730000
2979,1104.730000
2980,1107.230000
2981,1109.120000
2982,1110.040000
2983,1111.160000
2984,1110.600000
2985,1112.010000
2986,1109.450000
2987,1111.590000
2988,1111.690000
2989,1111.620000
2990,1113.090000
2991,1116.790000
2992,1118.440000
2993,1115.770000
2994,1116.860000
2995,1118.150000
2996,1120.910000
2997,1120.140000
2998,1121.420000
2999,1120.760000
3000,1122.920000
3001,1122.850000
3002,1124.090000
3003,1124.270000
3004,1125.980000
3005,1126.020000
3006,1127.610000
3007,1127.130000
3008,1129.060000
3009,1129.650000
3010,1130.070000
3011,1129.900000
3012,1132.270000
3013,1129.540000
3014,1134.600000
3015,1132.310000
3016,1135.460000
3017,1135.090000
3018,1137.900000
3019,1139.740000
3020,1138.390000
3021,1136.950000
3022,1139.700000
3023,1141.050000
3024,1138.760000
3025,1143.330000
3026,1141.470000
3027,1141.800000
3028,1144.170000
3029,1147.120000
3030,1144.470000
3031,1143.820000
3032,1148.780000
3033,1143.680000
3034,1148.470000
3035,1147.430000
3036,1150.650000
3037,1148.320000
3038,1151.470000
3039,1153.400000
3040,1152.560000
3041,1153.960000
3042,1152.210000
3043,1153.640000
3044,1158.090000
3045,1156.350000
3046,1156.800000
3047,1160.610000
3048,1160.070000
3049,1158.880000
3050,1158.280000
3051,1162.700000
3052,1163.990000
3053,1164.300000
3054,1162.680000
3055,1164.600000
3056,1165.680000
3057,1163.530000
3058,1168.140000
3059,1168.630000
3060,1167.460000
3061,1167.570000
3062,1170.280000
3063,1170.350000
3064,1170.760000
3065,1172.250000
3066,1169.460000
3067,1172.250000
3068,1175.090000
3069,1173.910000
3070,1172.610000
3071,1177.660000
3072,1176.770000
3073,1177.410000
3074,1176.960000
3075,1176.840000
3076,1181.580000
3077,1180.560000
3078,1179.640000
3079,1180.610000
3080,1185.090000
3081,1184.650000
3082,1182.990000
3083,1186.860000
3084,1186.570000
3085,1187.150000
3086,1186.430000
3087,1185.740000
3088,1188.310000
3089,1189.530000
3090,1191.290000
3091,1190.300000
3092,1191.570000
3093,1189.790000
3094,1193.010000
3095,1194.440000
3096,1193.270000
3097,1194.510000
3098,1197.370000
3099,1195.790000
3100,1196.880000
3101,1197.300000
3102,1197.250000
3103,1201.700000
3104,1201.560000
3105,1204.190000
3106,1204.900000
3107,1201.950000
3108,1203.420000
3109,1203.290000
3110,1205.110000
3111,1208.780000
3112,1205.720000
3113,1206.620000
3114,1205.720000
3115,1207.990000
3116,1210.300000
3117,1212.900000
3118,1213.700000
3119,1213.820000
3120,1213.360000
3121,1213.710000
3122,1213.370000
3123,1215.010000
3124,1216.240000
3125,1214.240000
3126,1214.710000
3127,1217.410000
3128,1219.970000
3129,1219.020000
3130,1220.040000
3131,1222.610000
3132,1221.370000
3133,1222.690000
3134,1222.940000
3135,1222.510000
3136,1225.130000
3137,1226.490000
3138,1226.910000
3139,1226.400000
3140,1227.470000
3141,1229.120000
3142,1230.650000
3143,1233.350000
3144,1229.050000
3145,1233.160000
3146,1231.960000
3147,1234.220000
3148,1234.740000
3149,1234.700000
3150,1235.120000
3151,1236.200000
3152,1236.100000
3153,1239.460000
3154,1236.700000
3155,1239.090000
3156,1240.990000
3157,1241.730000
3158,1240.750000
3159,1245.620000
3160,1242.040000
3161,1245.440000
3162,1246.010000
3163,1245.440000
3164,1247.540000
3165,1249.390000
3166,1249.380000
3167,1245.670000
3168,1251.390000
3169,1251.700000
3170,1251.910000
3171,1253.440000
3172,1253.280000
3173,1252.990000
3174,1257.660000
3175,1255.990000
3176,1254.410000
3177,1258.490000
3178,1258.830000
3179,1257.520000
3180,1259.970000
3181,1263.270000
3182,1259.450000
3183,1261.610000
3184,1261.870000
3185,1264.690000
3186,1263.030000
3187,1266.450000
3188,1265.610000
3189,1265.790000
3190,1265.850000
3191,1269.840000
3192,1268.940000
3193,1269.090000
3194,1268.520000
3195,1269.620000
3196,1271.440000
3197,1274.840000
3198,1272.280000
3199,1271.720000
3200,1275.860000
3201,1277.150000
3202,1274.180000
3203,1277.180000
3204,1278.320000
3205,1279.950000
3206,1283.680000
3207,1291.830000
3208,1280.000000
3209,1282.770000
3210,1281.490000
3211,1281.970000
3212,1284.060000
3213,1283.160000
3214,1285.960000
3215,1288.310000
3216,1287.640000
3217,1286.130000
3218,1291.400000
3219,1289.220000
3220,1289.100000
3221,1293.740000
3222,1291.220000
3223,1292.780000
3224,1296.680000
3225,1294.100000
3226,1298.230000
3227,1293.570000
3228,1297.520000
3229,1301.040000
3230,1302.920000
3231,1301.320000
3232,1302.260000
3233,1300.490000
3234,1303.510000
3235,1302.820000
3236,1306.190000
3237,1304.040000
3238,1304.780000
3239,1304.200000
3240,1307.310000
3241,1308.600000
3242,1309.640000
3243,1310.180000
3244,1310.080000
3245,1310.500000
3246,1310.300000
3247,1315.060000
3248,1315.510000
3249,1314.420000
3250,1317.520000
3251,1315.850000
3252,1318.950000
3253,1318.010000
3254,1319.010000
3255,1318.680000
3256,1322.240000
3257,1320.500000
3258,1320.810000
3259,1324.100000
3260,1321.940000
3261,1326.210000
3262,1326.270000
3263,1324.690000
3264,1327.980000
3265,1327.290000
3266,1334.300000
3267,1329.350000
3268,1332.480000
3269,1330.170000
3270,1332.600000
3271,1331.940000
3272,1334.250000
3273,1329.390000
3274,1330.650000
3275,1333.500000
3276,1334.310000
3277,1336.410000
3278,1334.450000
3279,1338.570000
3280,1337.090000
3281,1339.890000
3282,1339.730000
3283,1337.510000
3284,1341.730000
3285,1344.500000
3286,1345.420000
3287,1344.140000
3288,1347.320000
3289,1347.800000
3290,1349.760000
3291,1346.760000
3292,1349.730000
3293,1348.580000
3294,1351.350000
3295,1354.220000
3296,1353.320000
3297,1353.490000
3298,1351.610000
3299,1354.120000
3300,1354.950000
3301,1357.910000
3302,1358.540000
3303,1356.210000
3304,1360.150000
3305,1361.770000
3306,1362.450000
3307,1360.480000
3308,1362.650000
3309,1361.140000
3310,1363.360000
3311,1364.950000
3312,1365.560000
3313,1369.550000
3314,1369.820000
3315,1368.020000
3316,1367.290000
3317,1370.040000
3318,1367.620000
3319,1371.190000
3320,1371.870000
3321,1372.540000
3322,1373.890000
3323,1375.820000
3324,1376.530000
3325,1376.230000
3326,1377.230000
3327,1377.550000
3328,1380.910000
3329,1379.820000
3330,1378.500000
3331,1380.660000
3332,1380.950000
3333,1381.060000
3334,1382.820000
3335,1384.660000
3336,1382.730000
3337,1387.270000
3338,1388.710000
3339,1387.550000
3340,1384.840000
3341,1389.040000
3342,1391.580000
3343,1391.470000
3344,1392.170000
3345,1389.950000
3346,1395.760000
3347,1394.020000
3348,1395.720000
3349,1396.490000
3350,1396.100000
3351,1399.870000
3352,1399.900000
3353,1399.050000
3354,1396.980000
3355,1400.040000
3356,1400.770000
3357,1403.690000
3358,1404.090000
3359,1401.610000
3360,1404.390000
3361,1404.860000
3362,1407.900000
3363,1406.420000
3364,1408.140000
3365,1410.510000
3366,1410.340000
3367,1411.930000
3368,1410.010000
3369,1413.050000
3370,1415.000000
3371,1413.850000
3372,1413.060000
3373,1412.750000
3374,1416.470000
3375,1415.940000
3376,1418.230000
3377,1420.270000
3378,1420.500000
3379,1421.360000
3380,1421.160000
3381,1421.510000
3382,1422.450000
3383,1424.240000
3384,1423.590000
3385,1425.770000
3386,1427.190000
3387,1425.440000
3388,1426.980000
3389,1429.030000
3390,1430.380000
3391,1430.220000
3392,1433.150000
3393,1434.230000
3394,1435.330000
3395,1434.230000
3396,1434.330000
3397,1434.670000
3398,1435.730000
3399,1435.850000
3400,1442.250000
3401,1439.110000
3402,1438.220000
3403,1442.760000
3404,1442.960000
3405,1439.980000
3406,1447.460000
3407,1445.440000
3408,1446.580000
3409,1446.020000
3410,1447.120000
3411,1444.590000
3412,1450.190000
3413,1449.420000
3414,1451.820000
3415,1451.150000
3416,1452.850000
3417,1451.040000
3418,1457.410000
3419,1456.040000
3420,1454.940000
3421,1454.750000
3422,1456.040000
3423,1457.500000
3424,1457.440000
3425,1456.480000
3426,1460.120000
3427,1460.020000
3428,1462.290000
3429,1460.340000
3430,1461.730000
3431,1467.010000
3432,1463.320000
3433,1465.200000
3434,1464.280000
3435,1465.990000
3436,1469.880000
3437,1469.090000
3438,1470.620000
3439,1472.880000
3440,1474.610000
3441,1469.030000
3442,1475.910000
3443,1474.300000
3444,1476.860000
3445,1477.480000
3446,1477.970000
3447,1475.200000
3448,1478.110000
3449,1480.890000
3450,1481.880000
3451,1481.150000
3452,1481.480000
3453,1484.770000
3454,1483.600000
3455,1483.420000
3456,1486.210000
3457,1486.510000
3458,1487.190000
3459,1489.450000
3460,1490.810000
3461,1486.930000
3462,1491.780000
3463,1488.860000
3464,1489.890000
3465,1493.590000
3466,1492.590000
3467,1495.780000
3468,1497.260000
3469,1499.100000
3470,1497.990000
3471,1494.710000
3472,1497.770000
3473,1499.970000
3474,1501.560000
3475,1499.740000
3476,1507.420000
3477,1505.300000
3478,1505.230000
3479,1503.390000
3480,1506.400000
3481,1503.620000
3482,1504.860000
3483,1504.900000
3484,1511.720000
3485,1511.420000
3486,1513.830000
3487,1511.260000
3488,1512.290000
3489,1511.020000
3490,1517.060000
3491,1514.150000
3492,1516.200000
3493,1517.690000
3494,1519.260000
3495,1516.930000
3496,1521.610000
3497,1518.780000
3498,1522.260000
3499,1523.440000
3500,1523.520000
3501,1525.760000
3502,1523.560000
3503,1526.690000
3504,1526.060000
3505,1525.120000
3506,1530.770000
3507,1530.170000
3508,1529.920000
3509,1533.090000
3510,1531.580000
3511,1535.060000
3512,1538.260000
3513,1535.450000
3514,1537.250000
3515,1537.910000
3516,1537.670000
3517,1537.660000
3518,1536.830000
3519,1537.600000
3520,1543.640000
3521,1542.690000
3522,1543.750000
3523,1541.330000
3524,1548.330000
3525,1542.930000
3526,1546.380000
3527,1547.850000
3528,1547.750000
3529,1551.400000
3530,1553.010000
3531,1551.500000
3532,1550.010000
3533,1551.440000
3534,1554.170000
3535,1552.550000
3536,1552.650000
3537,1554.600000
3538,1554.600000
3539,1556.080000
3540,1560.120000
3541,1562.190000
3542,1559.120000
3543,1559.340000
3544,1560.550000
3545,1560.370000
3546,1562.730000
3547,1564.230000
3548,1565.600000
3549,1566.630000
3550,1566.200000
3551,1567.480000
3552,1567.470000
3553,1573.670000
3554,1572.030000
3555,1570.560000
3556,1573.080000
3557,1572.750000
3558,1572.390000
3559,1577.130000
3560,1576.570000
3561,1576.070000
3562,1578.110000
3563,1577.410000
3564,1578.500000
3565,1579.940000
3566,1581.350000
3567,1577.500000
3568,1582.030000
3569,1582.370000
3570,1583.360000
3571,1584.250000
3572,1587.610000
3573,1587.690000
3574,1589.670000
3575,1588.000000
3576,1590.480000
3577,1585.900000
3578,1592.010000
3579,1591.510000
3580,1591.260000
3581,1593.970000
3582,1595.400000
3583,1593.880000
3584,1598.460000
3585,1601.580000
3586,1595.040000
3587,1598.710000
3588,1601.910000
3589,1600.010000
3590,1601.670000
3591,1604.870000
3592,1605.080000
3593,1609.300000
3594,1606.100000
3595,1605.660000
3596,1605.320000
3597,1607.900000
3598,1605.270000
3599,1611.730000
3600,1612.600000
3601,1609.800000
3602,1610.220000
3603,1612.150000
3604,1613.270000
3605,1615.040000
3606,1614.030000
3607,1617.970000
3608,1620.920000
3609,1620.030000
3610,1620.010000
3611,1617.720000
3612,1623.750000
3613,1625.600000
3614,1624.420000
3615,1623.050000
3616,1627.100000
3617,1621.660000
3618,1625.540000
3619,1628.640000
3620,1629.250000
3621,1629.560000
3622,1629.240000
3623,1631.050000
3624,1631.800000
3625,1637.190000
3626,1633.040000
3627,1632.240000
3628,1634.060000
3629,1636.300000
3630,1636.710000
3631,1639.370000
3632,1638.520000
3633,1640.540000
3634,1639.900000
3635,1640.290000
3636,1641.900000
3637,1639.580000
3638,1643.030000
3639,1647.950000
3640,1644.980000
3641,1649.380000
3642,1649.850000
3643,1649.480000
3644,1652.290000
3645,1652.200000
3646,1652.800000
3647,1652.540000
3648,1655.390000
3649,1655.100000
3650,1658.300000
3651,1657.520000
3652,1656.570000
3653,1657.200000
3654,1660.370000
3655,1661.940000
3656,1660.200000
3657,1661.690000
3658,1661.410000
3659,1664.950000
3660,1663.650000
3661,1665.650000
3662,1665.280000
3663,1669.830000
3664,1669.180000
3665,1671.560000
3666,1669.530000
3667,1667.020000
3668,1673.190000
3669,1671.560000
3670,1674.370000
3671,1678.530000
3672,1675.650000
3673,1676.340000
3674,1677.030000
3675,1674.900000
3676,1674.960000
3677,1682.770000
3678,1683.350000
3679,1687.120000
3680,1683.770000
3681,1682.680000
3682,1685.730000
3683,1687.220000
3684,1687.130000
3685,1686.870000
3686,1688.160000
3687,1687.550000
3688,1688.350000
3689,1690.500000
3690,1693.190000
3691,1695.230000
3692,1693.440000
3693,1693.950000
3694,1697.190000
3695,1695.200000
3696,1695.720000
3697,1704.650000
3698,1700.380000
3699,1701.880000
3700,1700.710000
3701,1699.460000
3702,1703.340000
3703,1703.600000
3704,1703.980000
3705,1705.810000
3706,1704.760000
3707,1706.130000
3708,1707.730000
3709,1709.920000
3710,1709.740000
3711,1709.930000
3712,1714.350000
3713,1712.350000
3714,1713.220000
3715,1712.740000
3716,1715.560000
3717,1717.490000
3718,1715.070000
3719,1718.500000
3720,1716.250000
3721,1719.380000
3722,1721.760000
3723,1722.920000
3724,1722.010000
3725,1723.140000
3726,1725.690000
3727,1729.190000
3728,1725.230000
3729,1726.170000
3730,1727.170000
3731,1729.310000
3732,1729.250000
3733,1731.800000
3734,1730.550000
3735,1733.820000
3736,1733.680000
3737,1731.890000
3738,1735.600000
3739,1735.730000
3740,1737.940000
3741,1738.920000
3742,1743.420000
3743,1738.860000
3744,1742.810000
3745,1746.510000
3746,1738.390000
3747,1743.040000
3748,1741.330000
3749,1746.080000
3750,1744.040000
3751,1749.490000
3752,1749.550000
3753,1749.480000
3754,1752.480000
3755,1749.220000
3756,1750.460000
3757,1749.970000
3758,1753.220000
3759,1753.170000
3760,1754.070000
3761,1755.040000
3762,1760.070000
3763,1757.040000
3764,1761.610000
3765,1763.800000
3766,1761.810000
3767,1760.500000
3768,1765.050000
3769,1765.410000
3770,1762.170000
3771,1771.680000
3772,1767.460000
3773,1768.290000
3774,1770.530000
3775,1767.870000
3776,1769.560000
3777,1771.910000
3778,1771.660000
3779,1775.240000
3780,1776.110000
3781,1778.390000
3782,1776.920000
3783,1777.030000
3784,1776.840000
3785,1778.010000
3786,1781.110000
3787,1782.960000
3788,1784.000000
3789,1781.690000
3790,1781.130000
3791,1782.240000
3792,1787.940000
3793,1784.160000
3794,1789.310000
3795,1791.090000
3796,1788.270000
3797,1790.910000
3798,1793.070000
3799,1792.570000
3800,1792.790000
3801,1793.450000
3802,1797.740000
3803,1797.970000
3804,1795.130000
3805,1795.630000
3806,1797.070000
3807,1802.440000
3808,1796.630000
3809,1800.810000
3810,1803.770000
3811,1806.440000
3812,1801.260000
3813,1805.920000
3814,1808.400000
3815,1808.780000
3816,1806.850000
3817,1806.930000
3818,1812.340000
3819,1809.840000
3820,1811.230000
3821,1813.260000
3822,1808.410000
3823,1815.730000
3824,1818.800000
3825,1817.130000
3826,1818.160000
3827,1816.620000
3828,1820.840000
3829,1820.380000
3830,1821.610000
3831,1822.950000
3832,1821.000000
3833,1822.550000
3834,1824.550000
3835,1828.600000
3836,1826.340000
3837,1828.760000
3838,1831.740000
3839,1830.630000
3840,1829.180000
3841,1831.900000
3842,1834.910000
3843,1831.980000
3844,1833.460000
3845,1835.540000
3846,1835.520000
3847,1832.080000
3848,1833.850000
3849,1838.610000
3850,1840.290000
3851,1839.940000
3852,1843.000000
3853,1843.900000
3854,1843.670000
3855,1844.890000
3856,1848.770000
3857,1844.220000
3858,1849.200000
3859,1851.920000
3860,1845.560000
3861,1848.610000
3862,1852.000000
3863,1851.420000
3864,1853.660000
3865,1853.040000
3866,1857.420000
3867,1859.690000
3868,1855.470000
3869,1857.410000
3870,1861.170000
3871,1861.510000
3872,1858.250000
3873,1862.020000
3874,1862.420000
3875,1862.370000
3876,1862.830000
3877,1867.080000
3878,1868.140000
3879,1868.630000
3880,1869.070000
3881,1870.070000
3882,1869.520000
3883,1869.820000
3884,1873.140000
3885,1873.720000
3886,1872.810000
3887,1874.470000
3888,1871.770000
3889,1878.890000
3890,1877.870000
3891,1879.320000
3892,1878.550000
3893,1877.910000
3894,1877.570000
3895,1881.840000
3896,1882.690000
3897,1884.700000
3898,1883.460000
3899,1885.380000
3900,1884.930000
3901,1887.860000
3902,1891.090000
3903,1888.590000
3904,1889.470000
3905,1891.210000
3906,1895.310000
3907,1898.930000
3908,1896.900000
3909,1899.030000
3910,1892.930000
3911,1898.840000
3912,1897.210000
3913,1901.170000
3914,1903.680000
3915,1898.890000
3916,1904.460000
3917,1904.210000
3918,1906.360000
3919,1902.920000
3920,1905.090000
3921,1909.840000
3922,1904.860000
3923,1912.920000
3924,1910.950000
3925,1910.270000
3926,1915.810000
3927,1911.990000
3928,1915.770000
3929,1916.320000
3930,1916.300000
3931,1918.470000
3932,1921.540000
3933,1920.540000
3934,1920.350000
3935,1920.220000
3936,1923.670000
3937,1922.500000
3938,1924.720000
3939,1924.750000
3940,1924.160000
3941,1927.760000
3942,1930.800000
3943,1930.390000
3944,1928.030000
3945,1935.020000
3946,1932.090000
3947,1933.400000
3948,1933.380000
3949,1929.690000
3950,1935.510000
3951,1939.440000
3952,1942.180000
3953,1938.320000
3954,1936.920000
3955,1941.310000
3956,1941.060000
3957,1941.460000
3958,1948.660000
3959,1949.490000
3960,1945.440000
3961,1943.380000
3962,1946.050000
3963,1948.980000
3964,1949.300000
3965,1949.740000
3966,1949.210000
3967,1950.140000
3968,1952.140000
3969,1955.050000
3970,1955.720000
3971,1957.480000
3972,1956.130000
3973,1957.240000
3974,1965.110000
3975,1962.470000
3976,1962.320000
3977,1962.960000
3978,1965.050000
3979,1964.480000
3980,1968.890000
3981,1968.360000
3982,1967.090000
3983,1968.960000
3984,1968.330000
3985,1968.150000
3986,1971.030000
3987,1972.450000
3988,1970.620000
3989,1982.130000
3990,1970.390000
3991,1973.410000
3992,1976.880000
3993,1980.180000
3994,1979.360000
3995,1984.140000
3996,1982.480000
3997,1979.890000
3998,1981.310000
3999,1982.290000
4000,1986.130000
4001,1983.000000
4002,1988.180000
4003,1989.730000
4004,1988.740000
4005,1991.410000
4006,1994.720000
4007,1995.310000
4008,1999.680000
4009,1994.750000
4010,1998.470000
4011,1997.140000
4012,1997.990000
4013,1997.440000
4014,1997.760000
4015,2001.070000
4016,2005.270000
4017,2002.110000
4018,2005.230000
4019,2005.220000
4020,2004.440000
4021,2002.490000
4022,2004.130000
4023,2012.390000
4024,2009.710000
4025,2009.300000
4026,2008.640000
4027,2015.650000
4028,2014.090000
4029,2013.560000
4030,2015.600000
4031,2016.430000
4032,2016.170000
4033,2018.430000
4034,2017.600000
4035,2021.780000
4036,2019.750000
4037,2019.510000
4038,2022.680000
4039,2021.370000
4040,2026.010000
4041,2025.020000
4042,2028.190000
4043,2028.060000
4044,2027.590000
4045,2029.540000
4046,2033.370000
4047,2029.880000
4048,2033.020000
4049,2030.440000
4050,2036.420000
4051,2038.700000
4052,2036.510000
4053,2040.470000
4054,2036.590000
4055,2038.210000
4056,2040.460000
4057,2045.010000
4058,2044.510000
4059,2043.460000
4060,2043.800000
4061,2045.710000
4062,2046.430000
4063,2047.950000
4064,2050.510000
4065,2050.050000
4066,2051.100000
4067,2052.470000
4068,2054.420000
4069,2051.760000
4070,2057.230000
4071,2056.180000
4072,2058.570000
4073,2057.510000
4074,2060.550000
4075,2062.530000
4076,2062.480000
4077,2064.440000
4078,2065.970000
4079,2065.560000
4080,2064.700000
4081,2070.280000
4082,2066.990000
4083,2070.480000
4084,2068.060000
4085,2070.840000
4086,2065.980000
4087,2072.770000
4088,2070.480000
4089,2074.340000
4090,2071.750000
4091,2075.470000
4092,2080.410000
4093,2082.860000
4094,2075.600000
4095,2081.390000
4096,2081.310000
4097,2081.580000
4098,2078.630000
4099,2081.930000
4100,2086.650000
4101,2084.410000
4102,2088.830000
4103,2088.470000
4104,2088.470000
4105,2091.020000
4106,2093.630000
4107,2090.900000
4108,2090.190000
4109,2097.350000
4110,2093.770000
4111,2093.470000
4112,2100.080000
4113,2102.890000
4114,2097.710000
4115,2100.470000
4116,2103.860000
4117,2100.540000
4118,2104.520000
4119,2104.450000
4120,2103.760000
4121,2105.980000
4122,2103.900000
4123,2105.100000
4124,2110.790000
4125,2111.930000
4126,2114.840000
4127,2115.380000
4128,2114.940000
4129,2118.120000
4130,2114.980000
4131,2118.810000
4132,2117.220000
4133,2119.570000
4134,2117.330000
4135,2120.000000
4136,2121.140000
4137,2123.060000
4138,2121.810000
4139,2122.850000
4140,2125.540000
4141,2127.830000
4142,2128.460000
4143,2129.120000
4144,2128.050000
4145,2131.280000
4146,2133.180000
4147,2136.660000
4148,2129.910000
4149,2134.130000
4150,2135.100000
4151,2133.340000
4152,2139.220000
4153,2138.320000
4154,2140.980000
4155,2137.360000
4156,2143.670000
4157,2141.220000
4158,2146.590000
4159,2144.570000
4160,2141.710000
4161,2147.640000
4162,2150.090000
4163,2148.210000
4164,2150.060000
4165,2150.240000
4166,2152.790000
4167,2154.220000
4168,2152.370000
4169,2154.650000
4170,2156.720000
4171,2159.080000
4172,2158.810000
4173,2159.970000
4174,2161.170000
4175,2162.550000
4176,2163.360000
4177,2163.800000
4178,2158.900000
4179,2169.120000
4180,2163.830000
4181,2168.120000
4182,2168.450000
4183,2173.080000
4184,2167.880000
4185,2171.400000
4186,2173.930000
4187,2176.340000
4188,2172.450000
4189,2175.520000
4190,2174.430000
4191,2178.070000
4192,2178.830000
4193,2180.000000
4194,2209.110000
4195,2183.310000
4196,2189.580000
4197,2185.810000
4198,2187.800000
4199,2184.180000
4200,2186.400000
4201,2194.990000
4202,2190.570000
4203,2192.890000
4204,2191.660000
4205,2193.500000
4206,2195.410000
4207,2194.140000
4208,2194.880000
4209,2196.580000
4210,2202.140000
4211,2197.270000
4212,2201.810000
4213,2200.200000
4214,2203.210000
4215,2205.350000
4216,2204.840000
4217,2203.620000
4218,2207.460000
4219,2206.940000
4220,2207.780000
4221,2213.920000
4222,2215.690000
4223,2209.580000
4224,2212.160000
4225,2218.560000
4226,2215.260000
4227,2215.970000
4228,2216.490000
4229,2218.980000
4230,2222.470000
4231,2220.390000
4232,2218.860000
4233,2227.460000
4234,2228.370000
4235,2225.340000
4236,2226.570000
4237,2224.590000
4238,2227.260000
4239,2226.130000
4240,2230.230000
4241,2228.620000
4242,2230.920000
4243,2235.980000
4244,2233.520000
4245,2235.280000
4246,2233.940000
4247,2239.880000
4248,2238.960000
4249,2237.070000
4250,2241.470000
4251,2240.820000
4252,2244.010000
4253,2243.470000
4254,2246.010000
4255,2248.490000
4256,2244.860000
4257,2245.290000
4258,2248.700000
4259,2250.820000
4260,2248.380000
4261,2248.520000
4262,2256.760000
4263,2253.310000
4264,2255.000000
4265,2253.300000
4266,2255.260000
4267,2260.830000
4268,2261.170000
4269,2260.460000
4270,2260.980000
4271,2262.180000
4272,2261.260000
4273,2260.190000
4274,2261.580000
4275,2263.900000
4276,2265.240000
4277,2269.030000
4278,2268.680000
4279,2268.040000
4280,2272.500000
4281,2278.280000
4282,2268.770000
4283,2276.930000
4284,2274.120000
4285,2276.340000
4286,2272.550000
4287,2281.150000
4288,2283.560000
4289,2278.780000
4290,2285.010000
4291,2284.440000
4292,2281.230000
4293,2285.330000
4294,2290.100000
4295,2285.970000
4296,2287.500000
4297,2289.100000
4298,2294.110000
4299,2290.900000
4300,2288.660000
4301,2292.480000
4302,2293.900000
4303,2291.860000
4304,2297.130000
4305,2298.050000
4306,2296.790000
4307,2302.730000
4308,2300.120000
4309,2300.300000
4310,2301.100000
4311,2304.760000
4312,2304.160000
4313,2306.310000
4314,2304.210000
4315,2307.870000
4316,2308.420000
4317,2307.860000
4318,2310.880000
4319,2312.530000
4320,2311.760000
4321,2309.260000
4322,2313.200000
4323,2316.600000
4324,2319.260000
4325,2317.240000
4326,2316.510000
4327,2319.660000
4328,2325.150000
4329,2327.090000
4330,2325.360000
4331,2324.030000
4332,2324.750000
4333,2326.680000
4334,2323.440000
4335,2328.950000
4336,2330.960000
4337,2330.060000
4338,2334.190000
4339,2333.500000
4340,2332.010000
4341,2337.460000
4342,2335.720000
4343,2337.230000
4344,2341.830000
4345,2339.650000
4346,2338.980000
4347,2342.670000
4348,2340.550000
4349,2340.790000
4350,2344.980000
4351,2343.430000
4352,2350.420000
4353,2348.750000
4354,2345.650000
4355,2353.890000
4356,2350.450000
4357,2353.700000
4358,2350.630000
4359,2352.970000
4360,2360.070000
4361,2352.490000
4362,2357.410000
4363,2359.310000
4364,2364.280000
4365,2360.330000
4366,2361.480000
4367,2362.990000
4368,2366.490000
4369,2367.810000
4370,2363.530000
4371,2371.250000
4372,2366.770000
4373,2369.810000
4374,2368.550000
4375,2373.640000
4376,2369.070000
4377,2369.070000
4378,2376.000000
4379,2376.630000
4380,2374.140000
4381,2378.600000
4382,2381.000000
4383,2382.350000
4384,2383.420000
4385,2380.660000
4386,2383.800000
4387,2388.310000
4388,2388.220000
4389,2389.650000
4390,2389.960000
4391,2387.550000
4392,2390.640000
4393,2391.950000
4394,2395.010000
4395,2390.290000
4396,2389.840000
4397,2394.240000
4398,2401.980000
4399,2396.120000
4400,2395.830000
4401,2402.430000
4402,2400.370000
4403,2397.400000
4404,2402.260000
4405,2407.600000
4406,2403.800000
4407,2408.470000
4408,2406.760000
4409,2409.990000
4410,2407.820000
4411,2410.820000
4412,2414.310000
4413,2412.050000
4414,2416.240000
4415,2417.030000
4416,2418.460000
4417,2415.630000
4418,2421.100000
4419,2424.350000
4420,2420.280000
4421,2419.940000
4422,2423.370000
4423,2424.040000
4424,2424.780000
4425,2424.410000
4426,2425.110000
4427,2429.760000
4428,2428.270000
4429,2427.660000
4430,2434.160000
4431,2432.500000
4432,2435.360000
4433,2436.520000
4434,2436.710000
4435,2437.300000
4436,2439.190000
4437,2437.610000
4438,2438.520000
4439,2443.780000
4440,2440.430000
4441,2441.870000
4442,2439.830000
4443,2442.980000
4444,2443.790000
4445,2447.650000
4446,2446.740000
4447,2453.930000
4448,2448.620000
4449,2452.480000
4450,2456.000000
4451,2457.040000
4452,2460.790000
4453,2453.860000
4454,2460.090000
4455,2455.640000
4456,2459.180000
4457,2458.400000
4458,2458.950000
4459,2466.890000
4460,2464.190000
4461,2467.260000
4462,2461.650000
4463,2471.380000
4464,2469.220000
4465,2470.530000
4466,2469.390000
4467,2471.720000
4468,2470.560000
4469,2475.990000
4470,2475.220000
4471,2479.200000
4472,2478.220000
4473,2479.650000
4474,2477.590000
4475,2482.790000
4476,2484.440000
4477,2484.660000
4478,2487.690000
4479,2489.710000
4480,2483.250000
4481,2480.320000
4482,2487.910000
4483,2488.020000
4484,2487.800000
4485,2492.580000
4486,2494.760000
4487,2491.420000
4488,2495.230000
4489,2499.490000
4490,2501.230000
4491,2502.160000
4492,2500.360000
4493,2501.380000
4494,2497.500000
4495,2503.910000
4496,2504.780000
4497,2498.290000
4498,2508.080000
4499,2509.090000
4500,2507.580000
4501,2509.210000
4502,2511.810000
4503,2511.690000
4504,2516.860000
4505,2514.750000
4506,2518.300000
4507,2515.770000
4508,2516.020000
4509,2518.820000
4510,2517.750000
4511,2517.870000
4512,2521.800000
4513,2522.390000
4514,2525.920000
4515,2526.510000
4516,2524.670000
4517,2525.920000
4518,2531.950000
4519,2525.580000
4520,2529.930000
4521,2529.050000
4522,2532.310000
4523,2533.260000
4524,2534.980000
4525,2535.010000
4526,2532.030000
4527,2539.530000
4528,2541.980000
4529,2542.550000
4530,2543.210000
4531,2542.900000
4532,2544.990000
4533,2549.350000
4534,2547.440000
4535,2543.530000
4536,2548.050000
4537,2552.150000
4538,2555.210000
4539,2554.030000
4540,2547.620000
4541,2552.180000
4542,2557.660000
4543,2552.940000
4544,2558.340000
4545,2555.310000
4546,2560.440000
4547,2566.060000
4548,2562.370000
4549,2573.740000
4550,2567.530000
4551,2567.860000
4552,2564.710000
4553,2564.360000
4554,2570.860000
4555,2566.310000
4556,2573.290000
4557,2573.110000
4558,2568.060000
4559,2577.860000
4560,2577.030000
4561,2577.960000
4562,2574.550000
4563,2579.150000
4564,2578.260000
4565,2585.860000
4566,2581.920000
4567,2586.740000
4568,2584.350000
4569,2586.770000
4570,2583.770000
4571,2583.500000
4572,2584.210000
4573,2589.740000
4574,2589.020000
4575,2593.310000
4576,2592.750000
4577,2596.020000
4578,2590.900000
4579,2598.050000
4580,2597.900000
4581,2601.680000
4582,2599.670000
4583,2604.110000
4584,2603.190000
4585,2600.190000
4586,2611.950000
4587,2601.090000
4588,2606.140000
4589,2606.670000
4590,2611.570000
4591,2611.400000
4592,2612.850000
4593,2612.000000
4594,2611.720000
4595,2618.380000
4596,2613.740000
4597,2615.740000
4598,2618.510000
4599,2622.680000
4600,2621.270000
4601,2619.780000
4602,2625.050000
4603,2622.640000
4604,2626.130000
4605,2623.970000
4606,2631.240000
4607,2629.540000
4608,2630.370000
4609,2632.610000
4610,2628.150000
4611,2632.460000
4612,2632.310000
4613,2633.590000
4614,2637.830000
4615,2635.230000
4616,2636.020000
4617,2641.890000
4618,2641.480000
4619,2642.360000
4620,2647.560000
4621,2640.430000
4622,2648.400000
4623,2647.610000
4624,2650.750000
4625,2655.140000
4626,2651.750000
4627,2650.550000
4628,2654.110000
4629,2651.770000
4630,2652.410000
4631,2653.120000
4632,2657.230000
4633,2659.680000
4634,2659.910000
4635,2664.760000
4636,2656.700000
4637,2662.400000
4638,2671.280000
4639,2665.690000
4640,2664.670000
4641,2664.350000
4642,2669.410000
4643,2668.870000
4644,2668.790000
4645,2676.510000
4646,2669.770000
4647,2671.550000
4648,2674.750000
4649,2678.010000
4650,2680.260000
4651,2678.490000
4652,2677.250000
4653,2686.720000
4654,2682.670000
4655,2684.010000
4656,2682.900000
4657,2688.760000
4658,2685.320000
4659,2686.320000
4660,2690.060000
4661,2690.140000
4662,2696.130000
4663,2690.960000
4664,2694.600000
4665,2696.930000
4666,2691.240000
4667,2697.840000
4668,2695.980000
4669,2699.740000
4670,2699.210000
4671,2707.430000
4672,2701.490000
4673,2703.990000
4674,2707.140000
4675,2711.940000
4676,2711.830000
4677,2705.590000
4678,2708.740000
4679,2715.670000
4680,2711.070000
4681,2709.890000
4682,2713.640000
4683,2719.140000
4684,2720.520000
4685,2714.860000
4686,2722.580000
4687,2725.250000
4688,2725.680000
4689,2718.760000
4690,2725.950000
4691,2724.990000
4692,2724.650000
4693,2727.500000
4694,2722.590000
4695,2728.280000
4696,2732.910000
4697,2730.070000
4698,2730.720000
4699,2733.730000
4700,2735.100000
4701,2738.650000
4702,2735.980000
4703,2736.350000
4704,2741.100000
4705,2740.470000
4706,2743.110000
4707,2748.520000
4708,2743.450000
4709,2746.440000
4710,2747.910000
4711,2747.510000
4712,2750.080000
4713,2747.050000
4714,2748.710000
4715,2751.220000
4716,2749.460000
4717,2753.780000
4718,2756.040000
4719,2753.760000
4720,2758.580000
4721,2758.670000
4722,2759.180000
4723,2756.190000
4724,2763.300000
4725,2766.770000
4726,2762.420000
4727,2770.070000
4728,2773.150000
4729,2770.780000
4730,2771.300000
4731,2775.660000
4732,2773.550000
4733,2772.640000
4734,2773.660000
4735,2777.540000
4736,2777.790000
4737,2778.670000
4738,2781.170000
4739,2781.490000
4740,2783.350000
4741,2784.370000
4742,2783.100000
4743,2780.830000
4744,2784.170000
4745,2790.360000
4746,2785.550000
4747,2794.500000
4748,2794.810000
4749,2791.740000
4750,2795.120000
4751,2797.410000
4752,2794.400000
4753,2797.110000
4754,2795.740000
4755,2791.530000
4756,2798.850000
4757,2803.160000
4758,2798.190000
4759,2799.900000
4760,2804.840000
4761,2805.760000
4762,2808.070000
4763,2810.910000
4764,2812.890000
4765,2815.980000
4766,2811.830000
4767,2811.570000
4768,2810.920000
4769,2809.780000
4770,2814.360000
4771,2811.840000
4772,2819.940000
4773,2818.660000
4774,2822.640000
4775,2820.200000
4776,2821.050000
4777,2819.890000
4778,2823.990000
4779,2825.630000
4780,2827.890000
4781,2828.510000
4782,2833.710000
4783,2835.760000
4784,2834.660000
4785,2833.360000
4786,2832.750000
4787,2836.840000
4788,2836.200000
4789,2832.520000
4790,2834.900000
4791,2838.370000
4792,2839.160000
4793,2838.760000
4794,2846.020000
4795,2844.930000
4796,2855.910000
4797,2846.180000
4798,2850.170000
4799,2849.550000
4800,2854.530000
4801,2851.870000
4802,2851.830000
4803,2855.790000
4804,2855.880000
4805,2857.180000
4806,2860.340000
4807,2860.530000
4808,2863.020000
4809,2866.820000
4810,2864.760000
4811,2860.470000
4812,2861.710000
4813,2862.950000
4814,2866.760000
4815,2866.080000
4816,2872.960000
4817,2871.230000
4818,2872.230000
4819,2875.670000
4820,2872.790000
4821,2880.900000
4822,2880.500000
4823,2879.440000
4824,2879.420000
4825,2879.880000
4826,2882.500000
4827,2882.130000
4828,2884.110000
4829,2890.130000
4830,2886.800000
4831,2885.780000
4832,2888.770000
4833,2890.640000
4834,2894.680000
4835,2888.240000
4836,2891.610000
4837,2898.250000
4838,2897.060000
4839,2895.950000
4840,2898.190000
4841,2905.330000
4842,2897.880000
4843,2906.530000
4844,2902.410000
4845,2907.010000
4846,2911.410000
4847,2904.910000
4848,2906.550000
4849,2911.570000
4850,2912.720000
4851,2914.180000
4852,2916.520000
4853,2917.860000
4854,2912.090000
4855,2916.980000
4856,2914.690000
4857,2918.620000
4858,2921.690000
4859,2921.750000
4860,2920.340000
4861,2923.930000
4862,2926.660000
4863,2925.950000
4864,2934.720000
4865,2926.940000
4866,2928.920000
4867,2934.510000
4868,2929.920000
4869,2935.500000
4870,2933.830000
4871,2940.220000
4872,2936.170000
4873,2939.110000
4874,2933.430000
4875,2943.460000
4876,2944.750000
4877,2942.170000
4878,2944.610000
4879,2944.450000
4880,2944.060000
4881,2947.610000
4882,2947.650000
4883,2954.870000
4884,2951.790000
4885,2954.890000
4886,2956.770000
4887,2958.060000
4888,2956.850000
4889,2955.660000
4890,2964.130000
4891,2956.370000
4892,2961.980000
4893,2958.090000
4894,2961.710000
4895,2964.780000
4896,2967.130000
4897,2963.460000
4898,2965.160000
4899,2973.110000
4900,2970.970000
4901,2976.000000
4902,2974.630000
4903,2974.800000
4904,2978.410000
4905,2982.250000
4906,2983.370000
4907,2981.980000
4908,2982.470000
4909,2984.200000
4910,2983.850000
4911,2981.750000
4912,2984.690000
4913,2988.350000
4914,2992.260000
4915,2984.830000
4916,2992.420000
4917,2997.800000
4918,2998.820000
4919,2994.400000
4920,2998.170000
4921,2994.240000
4922,2997.500000
4923,3003.170000
4924,3002.960000
4925,2997.970000
4926,3006.820000
4927,3003.220000
4928,3001.150000
4929,3008.970000
4930,3001.940000
4931,3010.110000
4932,3008.040000
4933,3011.480000
4934,3016.150000
4935,3012.260000
4936,3016.120000
4937,3017.040000
4938,3023.010000
4939,3020.110000
4940,3019.790000
4941,3020.990000
4942,3023.160000
4943,3024.570000
4944,3028.050000
4945,3027.690000
4946,3024.650000
4947,3034.430000
4948,3035.600000
4949,3028.740000
4950,3032.200000
4951,3032.380000
4952,3032.830000
4953,3033.050000
4954,3038.500000
4955,3038.370000
4956,3040.330000
4957,3036.870000
4958,3044.380000
4959,3042.760000
4960,3046.230000
4961,3044.080000
4962,3043.740000
4963,3051.010000
4964,3050.490000
4965,3051.060000
4966,3057.820000
4967,3048.090000
4968,3061.640000
4969,3057.280000
4970,3056.260000
4971,3058.700000
4972,3058.940000
4973,3055.990000
4974,3063.290000
4975,3060.140000
4976,3058.050000
4977,3065.580000
4978,3063.890000
4979,3063.420000
4980,3072.130000
4981,3063.070000
4982,3070.290000
4983,3070.740000
4984,3072.350000
4985,3081.160000
4986,3075.130000
4987,3077.070000
4988,3079.000000
4989,3076.840000
4990,3081.350000
4991,3086.360000
4992,3082.490000
4993,3085.980000
4994,3082.330000
4995,3087.060000
4996,3092.970000
4997,3095.140000
4998,3091.240000
4999,3093.880000
5000,3094.190000
